File: AutoAnalysis Examples/EC/C000A-10ppb-A_C01.mpt
EC-Lab ASCII FILE
Nb header lines : 59

Cyclic Voltammetry

Run on channel : 1 (SN 22398)
User :
CE vs. WE compliance from -10 V to 10 V
Electrode connection : standard
Ewe ctrl range : min = -1.00 V, max = 1.00 V
Safety Limits :
	Ewe min = -2.00 V
	Ewe max = 2.00 V
	|I| = 50.000 mA
	for t > 10 ms
Acquisition started on : 11/21/2018 10:41:40
Technique started on : 11/21/2018 10:41:40
Saved on :
	File : C000A-10ppb-A_C01.mpr
	Directory : \\ECCOMPUTER\Users\Lab User\Google Drive\Electrochemical Data\EC-Lab\Data\FREDsense\Tim\2018.11.21 - EC comparison to High Throughput\
	Host : 172.16.1.30
Device : SP-50 (SN 0301030103010301)
Address : USB
EC-Lab for windows v11.02 (software)
Internet server v11.02 (firmware)
Command interpretor v11.02 (firmware)
Electrode material : Au/Pd
Initial state :
Electrolyte : NaCl (0.2M)
Comments : Fe(CN)63-/Fe(CN)64- 5.10-3 M
Reference electrode : SCE Saturated Calomel Electrode (0.241 V)
Electrode surface area : 0.001 cm²
Characteristic mass : 0.001 g
Equivalent Weight : 0.000 g/eq.
Density : 0.000 g/cm3
Cycle Definition : Charge/Discharge alternance
Ei (V)              -0.100
vs.                 Ref
dE/dt               50.000
dE/dt unit          mV/s
E1 (V)              0.300
vs.                 Ref
Step percent        50
N                   10
E range min (V)     -1.000
E range max (V)     1.000
I Range             Auto
I Range min         Unset
I Range max         Unset
I Range init        Unset
Bandwidth           5
E2 (V)              -0.200
vs.                 Ref
nc cycles           2
Reverse Scan        1
Ef (V)              0.000
vs.                 Eoc

mode	ox/red	error	control changes	counter inc.	time/s	control/V	Ewe/V	<I>/mA	cycle number	(Q-Qo)/C	P/W
2	1	0	1	0	0.000000000000000E+000	-0.0985178	-0.0987221	-7.68693e-05	1	0.0000000E+000	7.5887e-09
2	1	0	1	0	0.4865	-0.074192	-0.0743902	5.05632e-05	1	1.94805e-08	-3.7614e-09
2	1	0	1	0	0.9465	-0.0511911	-0.0513537	5.92821e-05	1	4.6382e-08	-3.04435e-09
2	1	0	1	0	1.4065	-0.0281903	-0.0283755	7.14755e-05	1	7.7916e-08	-2.02815e-09
2	1	0	1	0	1.8665	-0.00518949	-0.00539513	9.55179e-05	1	1.168e-07	-5.15332e-10
2	1	0	1	0	2.3265	0.0178113	0.0176435	0.000172655	1	1.76315e-07	3.04623e-09
2	1	0	1	0	2.7865	0.0408121	0.0406567	0.000393652	1	3.00234e-07	1.60046e-08
2	1	0	1	0	3.2465	0.0638129	0.0636667	0.000741915	1	5.62959e-07	4.72352e-08
2	1	0	1	0	3.7065	0.0868138	0.0866215	0.000907103	1	9.5552e-07	7.85746e-08
2	1	0	1	0	4.1665	0.109815	0.109672	0.000841198	1	1.36314e-06	9.22558e-08
2	1	0	1	0	4.6265	0.132815	0.132621	0.000738302	1	1.72691e-06	9.79147e-08
2	1	0	1	0	5.0865	0.155816	0.155675	0.000664435	1	2.0498e-06	1.03436e-07
2	1	0	1	0	5.5465	0.178817	0.178708	0.000617018	1	2.34545e-06	1.10266e-07
2	1	0	0	0	6.0067	0.201818	0.201665	0.000590245	1	2.62424e-06	1.19032e-07
2	1	0	0	0	6.4667	0.224819	0.224723	0.000574999	1	2.89307e-06	1.29216e-07
2	1	0	0	0	6.9267	0.247819	0.247724	0.000568405	1	3.15706e-06	1.40807e-07
2	1	0	0	0	7.3867	0.27082	0.270723	0.000573768	1	3.42118e-06	1.55332e-07
2	1	0	0	0	7.8467	0.293821	0.293678	0.000575547	1	3.68606e-06	1.69025e-07
2	0	0	1	0	8.2961	0.283721	0.28356	0.000359002	1	3.89016e-06	1.01799e-07
2	0	0	1	0	8.7561	0.26072	0.260568	0.000292203	1	4.03708e-06	7.61387e-08
2	0	0	1	0	9.2161	0.237719	0.237565	0.000253077	1	4.16109e-06	6.01221e-08
2	0	0	1	0	9.6761	0.214718	0.214539	0.000227544	1	4.27058e-06	4.88169e-08
2	0	0	1	0	10.1361	0.191717	0.191616	0.000206181	1	4.36917e-06	3.95075e-08
2	0	0	0	0	10.5963	0.168717	0.168591	0.000185072	1	4.45812e-06	3.12015e-08
2	0	0	0	0	11.0563	0.145716	0.145511	0.000164921	1	4.53722e-06	2.39979e-08
2	0	0	0	0	11.5163	0.122715	0.122543	0.000130141	1	4.60406e-06	1.59479e-08
2	0	0	0	0	11.9763	0.0997142	0.0995683	6.68582e-05	1	4.65012e-06	6.65695e-09
2	0	0	0	0	12.4363	0.0767134	0.0766071	-8.77651e-05	1	4.64941e-06	-6.72342e-09
2	0	0	0	0	12.8963	0.0537126	0.0535515	-0.000399734	1	4.54166e-06	-2.14063e-08
2	0	0	0	0	13.3563	0.0307118	0.0305065	-0.000671767	1	4.2843e-06	-2.04933e-08
2	0	0	0	0	13.8163	0.00771097	0.00750922	-0.000644657	1	3.97083e-06	-4.84087e-09
2	0	0	0	0	14.2763	-0.0152899	-0.0155294	-0.000508706	1	3.7053e-06	7.89991e-09
2	0	0	0	0	14.7363	-0.0382907	-0.0384482	-0.000409889	1	3.49496e-06	1.57595e-08
2	0	0	0	0	15.1963	-0.0612915	-0.0614954	-0.000349693	1	3.3203e-06	2.15045e-08
2	0	0	0	0	15.6563	-0.0842923	-0.084481	-0.000309849	1	3.16795e-06	2.61763e-08
2	0	0	1	0	16.1165	-0.107293	-0.107499	-0.000285109	1	3.03036e-06	3.0649e-08
2	0	0	1	0	16.5765	-0.130294	-0.130485	-0.000264862	1	2.90328e-06	3.45606e-08
2	0	0	1	0	17.0365	-0.153295	-0.153413	-0.00025051	1	2.7837e-06	3.84316e-08
2	0	0	1	0	17.4965	-0.176296	-0.176448	-0.000243892	1	2.66902e-06	4.30341e-08
2	0	0	1	0	17.9565	-0.199296	-0.199503	-0.000240119	1	2.55698e-06	4.79045e-08
2	1	0	0	1	18.3959	-0.178746	-0.178911	-7.35544e-05	1	2.51289e-06	1.31597e-08
2	1	0	0	1	18.8559	-0.155745	-0.155872	-4.68589e-05	1	2.48696e-06	7.30398e-09
2	1	0	0	1	19.3159	-0.132744	-0.132861	-3.03024e-05	1	2.47109e-06	4.02601e-09
2	1	0	0	1	19.7759	-0.109743	-0.109906	-1.51715e-05	1	2.46225e-06	1.66744e-09
2	1	0	1	1	20.2361	-0.0867424	-0.0869468	-5.22316e-06	2	2.45893e-06	4.54137e-10
2	1	0	1	1	20.6961	-0.0637416	-0.0638828	3.15133e-06	2	2.46018e-06	-2.01315e-10
2	1	0	1	1	21.1561	-0.0407408	-0.0409109	1.50427e-05	2	2.46565e-06	-6.15411e-10
2	1	0	1	1	21.6161	-0.0177399	-0.0179264	2.77537e-05	2	2.47653e-06	-4.97522e-10
2	1	0	1	1	22.0761	0.00526088	0.00512818	7.04563e-05	2	2.49907e-06	3.61313e-10
2	1	0	1	1	22.5361	0.0282617	0.0281424	0.000191681	2	2.55604e-06	5.39435e-09
2	1	0	1	1	22.9961	0.0512625	0.0511174	0.000470102	2	2.70413e-06	2.40304e-08
2	1	0	1	1	23.4561	0.0742633	0.0741963	0.000764123	2	2.99475e-06	5.66952e-08
2	1	0	1	1	23.9161	0.0972641	0.0971353	0.000815148	2	3.36899e-06	7.91796e-08
2	1	0	1	1	24.3761	0.120265	0.120156	0.000721905	2	3.72645e-06	8.67411e-08
2	1	0	1	1	24.8361	0.143266	0.143092	0.000626292	2	4.03739e-06	8.96171e-08
2	1	0	1	1	25.2961	0.166267	0.166132	0.000560797	2	4.31069e-06	9.31666e-08
2	1	0	0	1	25.7563	0.189267	0.189109	0.000515738	2	4.5585e-06	9.75305e-08
2	1	0	0	1	26.2163	0.212268	0.212187	0.000484784	2	4.7894e-06	1.02865e-07
2	1	0	0	1	26.6763	0.235269	0.235138	0.000469162	2	5.00975e-06	1.10318e-07
2	1	0	0	1	27.1363	0.25827	0.258169	0.000460443	2	5.22443e-06	1.18872e-07
2	1	0	0	1	27.5963	0.281271	0.281123	0.000463333	2	5.43818e-06	1.30254e-07
2	0	0	0	1	28.0467	0.296221	0.296055	0.000346263	2	5.64236e-06	1.02513e-07
2	0	0	0	1	28.5067	0.27322	0.273104	0.000267319	2	5.7788e-06	7.30061e-08
2	0	0	0	1	28.9667	0.250219	0.250049	0.000227008	2	5.89093e-06	5.67632e-08
2	0	0	0	1	29.4267	0.227219	0.227064	0.000203802	2	5.98942e-06	4.6276e-08
2	0	0	0	1	29.8867	0.204218	0.20407	0.000184949	2	6.07804e-06	3.77425e-08
2	0	0	1	1	30.3469	0.181217	0.181091	0.000167733	2	6.15825e-06	3.0375e-08
2	0	0	1	1	30.8069	0.158216	0.158099	0.000150516	2	6.23023e-06	2.37965e-08
2	0	0	1	1	31.2669	0.135215	0.135084	0.000123922	2	6.29277e-06	1.67398e-08
2	0	0	1	1	31.7269	0.112215	0.112078	8.68237e-05	2	6.34151e-06	9.73101e-09
2	0	0	1	1	32.1869	0.0892138	0.0890709	-1.78222e-06	2	6.36265e-06	-1.58744e-10
2	0	0	1	1	32.6469	0.066213	0.0660822	-0.000216821	2	6.31744e-06	-1.4328e-08
2	0	0	1	1	33.1069	0.0432122	0.0430499	-0.000551776	2	6.14013e-06	-2.37539e-08
2	0	0	1	1	33.5669	0.0202114	0.0200303	-0.00070904	2	5.83583e-06	-1.42023e-08
2	0	0	1	1	34.0269	-0.0027894	-0.00295951	-0.000608606	2	5.52655e-06	1.80118e-09
2	0	0	1	1	34.4869	-0.0257902	-0.0259801	-0.00048551	2	5.27521e-06	1.26136e-08
2	0	0	1	1	34.9469	-0.048791	-0.049006	-0.000403819	2	5.07114e-06	1.97896e-08
2	0	0	1	1	35.4069	-0.0717919	-0.0719959	-0.000352225	2	4.8967e-06	2.53587e-08
2	0	0	1	1	35.8669	-0.0947927	-0.0949815	-0.000318824	2	4.7415e-06	3.02824e-08
2	0	0	0	1	36.3271	-0.117794	-0.117996	-0.00029482	2	4.5996e-06	3.47875e-08
2	0	0	0	1	36.7871	-0.140794	-0.140999	-0.000276231	2	4.46748e-06	3.89484e-08
2	0	0	0	1	37.2471	-0.163795	-0.163954	-0.000264899	2	4.3423e-06	4.34314e-08
2	0	0	0	1	37.7071	-0.186796	-0.186945	-0.000257161	2	4.22161e-06	4.8075e-08
2	1	0	1	0	38.1465	-0.191246	-0.1914	-0.000113424	2	4.13102e-06	2.17093e-08
2	1	0	1	0	38.6065	-0.168245	-0.168429	-7.29927e-05	2	4.09078e-06	1.22941e-08
2	1	0	1	0	39.0665	-0.145244	-0.145407	-5.18843e-05	2	4.06384e-06	7.54436e-09
2	1	0	1	0	39.5265	-0.122244	-0.122377	-3.45559e-05	2	4.04543e-06	4.22886e-09
2	1	0	1	0	39.9865	-0.0992428	-0.0993757	-2.20993e-05	3	4.03355e-06	2.19613e-09
2	1	0	0	0	40.4467	-0.076242	-0.0764293	-1.17005e-05	3	4.02684e-06	8.94264e-10
2	1	0	0	0	40.9067	-0.0532412	-0.0534162	-2.00832e-06	3	4.02462e-06	1.07277e-10
2	1	0	0	0	41.3667	-0.0302404	-0.0303648	7.78282e-06	3	4.0271e-06	-2.36324e-10
2	1	0	0	0	41.8267	-0.00723956	-0.00741628	3.15426e-05	3	4.03696e-06	-2.33929e-10
2	1	0	0	0	42.2867	0.0157612	0.0156329	0.000100459	3	4.0659e-06	1.57046e-09
2	1	0	0	0	42.7467	0.0387621	0.0385772	0.000282434	3	4.14956e-06	1.08955e-08
2	1	0	0	0	43.2067	0.0617629	0.0616275	0.00059518	3	4.3512e-06	3.66795e-08
2	1	0	0	0	43.6667	0.0847637	0.0846068	0.000796353	3	4.68187e-06	6.73769e-08
2	1	0	0	0	44.1267	0.107764	0.107644	0.000766748	3	5.04881e-06	8.25361e-08
2	1	0	0	0	44.5867	0.130765	0.130669	0.000664561	3	5.37935e-06	8.68376e-08
2	1	0	0	0	45.0467	0.153766	0.153654	0.000578486	3	5.66566e-06	8.88865e-08
2	1	0	0	0	45.5067	0.176767	0.17661	0.000522922	3	5.91941e-06	9.23531e-08
2	1	0	1	0	45.9669	0.199768	0.199627	0.000482714	3	6.15113e-06	9.63627e-08
2	1	0	1	0	46.4269	0.222769	0.222604	0.00045528	3	6.36794e-06	1.01347e-07
2	1	0	1	0	46.8869	0.245769	0.245638	0.000440129	3	6.57512e-06	1.08112e-07
2	1	0	1	0	47.3469	0.26877	0.26867	0.000433039	3	6.77705e-06	1.16345e-07
2	1	0	1	0	47.8069	0.291771	0.291618	0.000438337	3	6.97834e-06	1.27827e-07
2	0	0	1	0	48.2573	0.285721	0.285555	0.000276708	3	7.13788e-06	7.90154e-08
2	0	0	1	0	48.7173	0.26272	0.262549	0.000232196	3	7.25266e-06	6.09628e-08
2	0	0	1	0	49.1773	0.239719	0.239579	0.000202588	3	7.35165e-06	4.85358e-08
2	0	0	1	0	49.6373	0.216718	0.216486	0.000183361	3	7.44015e-06	3.96951e-08
2	0	0	1	0	50.0973	0.193718	0.193625	0.000168984	3	7.52021e-06	3.27195e-08
2	0	0	0	0	50.5575	0.170717	0.170634	0.000150834	3	7.59258e-06	2.57374e-08
2	0	0	0	0	51.0175	0.147716	0.147542	0.000130254	3	7.65667e-06	1.9218e-08
2	0	0	0	0	51.4775	0.124715	0.124532	0.000101223	3	7.71018e-06	1.26056e-08
2	0	0	0	0	51.9375	0.101714	0.101535	4.91465e-05	3	7.74582e-06	4.99008e-09
2	0	0	0	0	52.3975	0.0787135	0.0785153	-8.28156e-05	3	7.74155e-06	-6.50229e-09
2	0	0	0	0	52.8575	0.0557127	0.0555063	-0.000362025	3	7.64444e-06	-2.00947e-08
2	0	0	0	0	53.3175	0.0327118	0.0325388	-0.000661434	3	7.40192e-06	-2.15222e-08
2	0	0	0	0	53.7775	0.00971104	0.00957222	-0.000687888	3	7.07935e-06	-6.58461e-09
2	0	0	0	0	54.2375	-0.0132898	-0.0134972	-0.000559151	3	6.7909e-06	7.54694e-09
2	0	0	0	0	54.6975	-0.0362906	-0.0365188	-0.000452879	3	6.55898e-06	1.65386e-08
2	0	0	0	0	55.1575	-0.0592914	-0.0594705	-0.000388277	3	6.36575e-06	2.3091e-08
2	0	0	0	0	55.6175	-0.0822922	-0.0824784	-0.00034456	3	6.1969e-06	2.84188e-08
2	0	0	1	0	56.0777	-0.105293	-0.10551	-0.000314929	3	6.04444e-06	3.3228e-08
2	0	0	1	0	56.5377	-0.128294	-0.128526	-0.000292966	3	5.90388e-06	3.76537e-08
2	0	0	1	0	56.9977	-0.151295	-0.151472	-0.00027654	3	5.77202e-06	4.18882e-08
2	0	0	1	0	57.4577	-0.174296	-0.174457	-0.000267385	3	5.64623e-06	4.66471e-08
2	0	0	1	0	57.9177	-0.197296	-0.197492	-0.000259715	3	5.52401e-06	5.12917e-08
2	1	0	0	1	58.3571	-0.180746	-0.180869	-9.60477e-05	3	5.46526e-06	1.7372e-08
2	1	0	0	1	58.8171	-0.157745	-0.15797	-6.55809e-05	3	5.42995e-06	1.03598e-08
2	1	0	0	1	59.2771	-0.134744	-0.134901	-4.81784e-05	3	5.4052e-06	6.49929e-09
2	1	0	0	1	59.7371	-0.111743	-0.111958	-3.42203e-05	3	5.3879e-06	3.83125e-09
2	1	0	1	1	60.1973	-0.0887425	-0.0888869	-2.08434e-05	3	5.37654e-06	1.8527e-09
2	1	0	1	1	60.6553	-0.0658417	-0.0660183	-1.22276e-05	3	5.36998e-06	8.07247e-10
2	1	0	1	1	60.6584	-0.0656666	-0.0659171	-4.9529e-06	3	5.36995e-06	3.26481e-10