File: AutoAnalysis Examples/EC/C000A-5ppb-A_C01.mpt
EC-Lab ASCII FILE
Nb header lines : 59

Cyclic Voltammetry

Run on channel : 1 (SN 22398)
User :
CE vs. WE compliance from -10 V to 10 V
Electrode connection : standard
Ewe ctrl range : min = -1.00 V, max = 1.00 V
Safety Limits :
	Ewe min = -2.00 V
	Ewe max = 2.00 V
	|I| = 50.000 mA
	for t > 10 ms
Acquisition started on : 11/21/2018 10:39:16
Technique started on : 11/21/2018 10:39:16
Saved on :
	File : C000A-5ppb-A_C01.mpr
	Directory : \\ECCOMPUTER\Users\Lab User\Google Drive\Electrochemical Data\EC-Lab\Data\FREDsense\Tim\2018.11.21 - EC comparison to High Throughput\
	Host : 172.16.1.30
Device : SP-50 (SN 0301030103010301)
Address : USB
EC-Lab for windows v11.02 (software)
Internet server v11.02 (firmware)
Command interpretor v11.02 (firmware)
Electrode material : Au/Pd
Initial state :
Electrolyte : NaCl (0.2M)
Comments : Fe(CN)63-/Fe(CN)64- 5.10-3 M
Reference electrode : SCE Saturated Calomel Electrode (0.241 V)
Electrode surface area : 0.001 cm²
Characteristic mass : 0.001 g
Equivalent Weight : 0.000 g/eq.
Density : 0.000 g/cm3
Cycle Definition : Charge/Discharge alternance
Ei (V)              -0.100
vs.                 Ref
dE/dt               50.000
dE/dt unit          mV/s
E1 (V)              0.300
vs.                 Ref
Step percent        50
N                   10
E range min (V)     -1.000
E range max (V)     1.000
I Range             Auto
I Range min         Unset
I Range max         Unset
I Range init        Unset
Bandwidth           5
E2 (V)              -0.200
vs.                 Ref
nc cycles           2
Reverse Scan        1
Ef (V)              0.000
vs.                 Eoc

mode	ox/red	error	control changes	counter inc.	time/s	control/V	Ewe/V	<I>/mA	cycle number	(Q-Qo)/C	P/W
2	1	0	1	0	0.000000000000000E+000	-0.0985036	-0.0985623	-7.30541e-05	1	0.0000000E+000	7.20038e-09
2	1	0	1	0	0.4865	-0.0741777	-0.0743608	4.83799e-05	1	1.96992e-08	-3.59757e-09
2	1	0	1	0	0.9465	-0.0511769	-0.0513423	5.69858e-05	1	4.54335e-08	-2.92578e-09
2	1	0	1	0	1.4065	-0.0281761	-0.0283651	6.88754e-05	1	7.5553e-08	-1.95366e-09
2	1	0	1	0	1.8665	-0.00517522	-0.00540706	9.01958e-05	1	1.12626e-07	-4.87694e-10
2	1	0	1	0	2.3265	0.0178256	0.0176687	0.000161198	1	1.68959e-07	2.84815e-09
2	1	0	1	0	2.7865	0.0408264	0.0406363	0.00036507	1	2.84434e-07	1.48351e-08
2	1	0	1	0	3.2465	0.0638273	0.0637183	0.000689525	1	5.27588e-07	4.39354e-08
2	1	0	1	0	3.7065	0.0868281	0.0866435	0.000867903	1	8.98026e-07	7.51982e-08
2	1	0	1	0	4.1665	0.109829	0.109681	0.000825691	1	1.29389e-06	9.05627e-08
2	1	0	1	0	4.6265	0.13283	0.132696	0.000729677	1	1.65258e-06	9.68255e-08
2	1	0	1	0	5.0865	0.155831	0.155647	0.000657818	1	1.97171e-06	1.02387e-07
2	1	0	0	0	5.5467	0.178831	0.178731	0.000607831	1	2.26337e-06	1.08638e-07
2	1	0	0	0	6.0067	0.201832	0.201675	0.000578276	1	2.53727e-06	1.16624e-07
2	1	0	0	0	6.4667	0.224833	0.224709	0.000562973	1	2.80085e-06	1.26505e-07
2	1	0	0	0	6.9267	0.247834	0.24762	0.000556014	1	3.05967e-06	1.3768e-07
2	1	0	0	0	7.3867	0.270835	0.270734	0.000556369	1	3.3162e-06	1.50628e-07
2	1	0	0	0	7.8467	0.293836	0.293717	0.000557148	1	3.57364e-06	1.63644e-07
2	0	0	1	0	8.2861	0.284185	0.284025	0.000358912	1	3.76955e-06	1.0194e-07
2	0	0	1	0	8.7461	0.261184	0.261025	0.000286916	1	3.9146e-06	7.48922e-08
2	0	0	1	0	9.2061	0.238184	0.238013	0.000249293	1	4.03644e-06	5.9335e-08
2	0	0	1	0	9.6661	0.215183	0.214999	0.000222635	1	4.14398e-06	4.78662e-08
2	0	0	1	0	10.1261	0.192182	0.191985	0.00020147	1	4.24057e-06	3.86793e-08
2	0	0	0	0	10.5863	0.169181	0.168982	0.000182004	1	4.32753e-06	3.07554e-08
2	0	0	0	0	11.0463	0.14618	0.145957	0.000156826	1	4.40451e-06	2.28898e-08
2	0	0	0	0	11.5063	0.123179	0.123007	0.000125165	1	4.46914e-06	1.53962e-08
2	0	0	0	0	11.9663	0.100179	0.100012	6.51253e-05	1	4.51344e-06	6.51332e-09
2	0	0	0	0	12.4263	0.0771777	0.0770053	-7.68576e-05	1	4.5141e-06	-5.91844e-09
2	0	0	0	0	12.8863	0.0541769	0.0540187	-0.000359903	1	4.41768e-06	-1.94415e-08
2	0	0	0	0	13.3463	0.0311761	0.0310055	-0.00063063	1	4.18145e-06	-1.9553e-08
2	0	0	0	0	13.8063	0.00817526	0.00790644	-0.000626668	1	3.88184e-06	-4.95471e-09
2	0	0	0	0	14.2663	-0.0148256	-0.0150368	-0.000503054	1	3.62073e-06	7.56431e-09
2	0	0	0	0	14.7263	-0.0378264	-0.0379948	-0.000407424	1	3.41246e-06	1.548e-08
2	0	0	0	0	15.1863	-0.0608272	-0.0610451	-0.000344447	1	3.2399e-06	2.10268e-08
2	0	0	0	0	15.6463	-0.0838281	-0.0840138	-0.000306037	1	3.08991e-06	2.57113e-08
2	0	0	1	0	16.1065	-0.106829	-0.106971	-0.000279039	1	2.95483e-06	2.98491e-08
2	0	0	1	0	16.5665	-0.12983	-0.129998	-0.000259867	1	2.83029e-06	3.37821e-08
2	0	0	1	0	17.0265	-0.152831	-0.153015	-0.000248207	1	2.71329e-06	3.79794e-08
2	0	0	1	0	17.4865	-0.175831	-0.176109	-0.000237942	1	2.6013e-06	4.19038e-08
2	0	0	1	0	17.9465	-0.198832	-0.199038	-0.00023466	1	2.49206e-06	4.67064e-08
2	1	0	0	1	18.3959	-0.178732	-0.178927	-7.45065e-05	1	2.446e-06	1.33312e-08
2	1	0	0	1	18.8559	-0.155731	-0.155909	-4.85917e-05	1	2.41989e-06	7.5759e-09
2	1	0	0	1	19.3159	-0.13273	-0.132886	-3.02742e-05	1	2.40351e-06	4.023e-09
2	1	0	0	1	19.7759	-0.109729	-0.109878	-1.73883e-05	1	2.39399e-06	1.91059e-09
2	1	0	1	1	20.2361	-0.0867282	-0.0869281	-6.38721e-06	2	2.38981e-06	5.55228e-10
2	1	0	1	1	20.6961	-0.0637274	-0.0639319	1.96254e-06	2	2.39007e-06	-1.25469e-10
2	1	0	1	1	21.1561	-0.0407265	-0.0409324	1.1252e-05	2	2.3945e-06	-4.60573e-10
2	1	0	1	1	21.6161	-0.0177257	-0.0178875	2.75364e-05	2	2.40427e-06	-4.92557e-10
2	1	0	1	1	22.0761	0.00527516	0.00517025	6.43145e-05	2	2.42529e-06	3.32523e-10
2	1	0	1	1	22.5361	0.028276	0.0281697	0.000178726	2	2.47851e-06	5.03464e-09
2	1	0	1	1	22.9961	0.0512768	0.0511309	0.000433237	2	2.61548e-06	2.21518e-08
2	1	0	1	1	23.4561	0.0742776	0.0741663	0.000714237	2	2.88522e-06	5.29723e-08
2	1	0	1	1	23.9161	0.0972785	0.0971541	0.000787442	2	3.24049e-06	7.65032e-08
2	1	0	1	1	24.3761	0.120279	0.120117	0.000707673	2	3.58758e-06	8.50038e-08
2	1	0	1	1	24.8361	0.14328	0.143077	0.00061464	2	3.89252e-06	8.79406e-08
2	1	0	1	1	25.2961	0.166281	0.166105	0.000549256	2	4.16088e-06	9.12339e-08
2	1	0	0	1	25.7563	0.189282	0.189106	0.000503308	2	4.40384e-06	9.51786e-08
2	1	0	0	1	26.2163	0.212283	0.212152	0.000475217	2	4.62977e-06	1.00818e-07
2	1	0	0	1	26.6763	0.235283	0.235139	0.00045641	2	4.84503e-06	1.0732e-07
2	1	0	0	1	27.1363	0.258284	0.258133	0.000449666	2	5.05448e-06	1.16074e-07
2	1	0	0	1	27.5963	0.281285	0.281182	0.000451426	2	5.26278e-06	1.26933e-07
2	0	0	0	1	28.0367	0.296686	0.296491	0.000342257	2	5.45826e-06	1.01476e-07
2	0	0	0	1	28.4967	0.273685	0.273482	0.000261206	2	5.59252e-06	7.14352e-08
2	0	0	0	1	28.9567	0.250684	0.250502	0.000224007	2	5.70251e-06	5.61143e-08
2	0	0	0	1	29.4167	0.227683	0.227533	0.000200002	2	5.79892e-06	4.55071e-08
2	0	0	0	1	29.8767	0.204682	0.204495	0.000180427	2	5.88549e-06	3.68964e-08
2	0	0	0	1	30.3367	0.181682	0.181558	0.000163854	2	5.96363e-06	2.97491e-08
2	0	0	1	1	30.7969	0.158681	0.158538	0.000144797	2	6.03359e-06	2.29559e-08
2	0	0	1	1	31.2569	0.13568	0.135474	0.000120624	2	6.094e-06	1.63414e-08
2	0	0	1	1	31.7169	0.112679	0.112581	8.25067e-05	2	6.14078e-06	9.28868e-09
2	0	0	1	1	32.1769	0.0896782	0.0894872	-3.56737e-07	2	6.16132e-06	-3.19234e-11
2	0	0	1	1	32.6369	0.0666774	0.0665037	-0.000193456	2	6.12102e-06	-1.28655e-08
2	0	0	1	1	33.0969	0.0436765	0.0435022	-0.000506926	2	5.96014e-06	-2.20524e-08
2	0	0	1	1	33.5569	0.0206757	0.0204784	-0.000676001	2	5.67604e-06	-1.38435e-08
2	0	0	1	1	34.0169	-0.00232512	-0.00257925	-0.000595975	2	5.37719e-06	1.53717e-09
2	0	0	1	1	34.4769	-0.025326	-0.0255946	-0.000477202	2	5.13015e-06	1.22138e-08
2	0	0	1	1	34.9369	-0.0483268	-0.0485463	-0.000396577	2	4.92925e-06	1.92523e-08
2	0	0	1	1	35.3969	-0.0713276	-0.071552	-0.000346323	2	4.75798e-06	2.47801e-08
2	0	0	1	1	35.8569	-0.0943285	-0.094526	-0.000313908	2	4.60596e-06	2.96725e-08
2	0	0	0	1	36.3171	-0.117329	-0.117546	-0.000286456	2	4.46722e-06	3.36717e-08
2	0	0	0	1	36.7771	-0.14033	-0.140541	-0.000270981	2	4.33818e-06	3.80839e-08
2	0	0	0	1	37.2371	-0.163331	-0.163584	-0.000258415	2	4.21608e-06	4.22724e-08
2	0	0	0	1	37.6971	-0.186332	-0.186596	-0.000249293	2	4.0985e-06	4.6517e-08
2	1	0	1	0	38.1465	-0.191232	-0.191401	-0.000111115	2	4.00753e-06	2.12676e-08
2	1	0	1	0	38.6065	-0.168231	-0.168436	-7.34838e-05	2	3.96765e-06	1.23773e-08
2	1	0	1	0	39.0665	-0.14523	-0.14539	-5.00066e-05	2	3.94071e-06	7.27045e-09
2	1	0	1	0	39.5265	-0.12223	-0.122387	-3.62252e-05	2	3.92208e-06	4.4335e-09
2	1	0	1	0	39.9865	-0.0992286	-0.0994407	-2.34965e-05	3	3.90981e-06	2.33651e-09
2	1	0	0	0	40.4467	-0.0762278	-0.0763915	-1.36418e-05	3	3.90263e-06	1.04212e-09
2	1	0	0	0	40.9067	-0.053227	-0.0534377	-5.52698e-06	3	3.89988e-06	2.95349e-10
2	1	0	0	0	41.3667	-0.0302261	-0.0303259	7.92059e-06	3	3.90173e-06	-2.40199e-10
2	1	0	0	0	41.8267	-0.00722529	-0.00742615	2.95395e-05	3	3.91082e-06	-2.19365e-10
2	1	0	0	0	42.2867	0.0157755	0.0156199	9.52353e-05	3	3.93806e-06	1.48757e-09
2	1	0	0	0	42.7467	0.0387764	0.0386712	0.000263861	3	4.01612e-06	1.02038e-08
2	1	0	0	0	43.2067	0.0617772	0.0616696	0.000550298	3	4.20291e-06	3.39366e-08
2	1	0	0	0	43.6667	0.084778	0.0846467	0.00075512	3	4.51275e-06	6.39184e-08
2	1	0	0	0	44.1267	0.107779	0.107644	0.000742794	3	4.86446e-06	7.99573e-08
2	1	0	0	0	44.5867	0.13078	0.130614	0.000650216	3	5.18646e-06	8.49271e-08
2	1	0	0	0	45.0467	0.153781	0.153641	0.00056749	3	5.46689e-06	8.71896e-08
2	1	0	1	0	45.5069	0.176781	0.176688	0.000508805	3	5.71551e-06	8.98996e-08
2	1	0	1	0	45.9669	0.199782	0.199641	0.000471834	3	5.94195e-06	9.41973e-08
2	1	0	1	0	46.4269	0.222783	0.222613	0.000445254	3	6.15363e-06	9.91194e-08
2	1	0	1	0	46.8869	0.245784	0.245653	0.000430305	3	6.35566e-06	1.05706e-07
2	1	0	1	0	47.3469	0.268785	0.268711	0.000422709	3	6.5524e-06	1.13587e-07
2	1	0	1	0	47.8069	0.291785	0.291619	0.000426087	3	6.74838e-06	1.24255e-07
2	0	0	1	0	48.2473	0.286185	0.286048	0.000271504	3	6.90136e-06	7.76632e-08
2	0	0	1	0	48.7073	0.263184	0.263001	0.000225632	3	7.01403e-06	5.93415e-08
2	0	0	1	0	49.1673	0.240184	0.240036	0.000200467	3	7.11097e-06	4.81191e-08
2	0	0	1	0	49.6273	0.217183	0.217012	0.000180529	3	7.19752e-06	3.9177e-08
2	0	0	1	0	50.0873	0.194182	0.193968	0.000163618	3	7.27568e-06	3.17366e-08
2	0	0	0	0	50.5475	0.171181	0.170958	0.000147496	3	7.34613e-06	2.52156e-08
2	0	0	0	0	51.0075	0.14818	0.147982	0.00012611	3	7.40824e-06	1.8662e-08
2	0	0	0	0	51.4675	0.125179	0.124979	0.000100008	3	7.45988e-06	1.24989e-08
2	0	0	0	0	51.9275	0.102179	0.10198	4.67265e-05	3	7.49421e-06	4.76516e-09
2	0	0	0	0	52.3875	0.0791778	0.0789676	-7.20706e-05	3	7.49134e-06	-5.69125e-09
2	0	0	0	0	52.8475	0.056177	0.0560276	-0.00032699	3	7.40387e-06	-1.83205e-08
2	0	0	0	0	53.3075	0.0331762	0.0329837	-0.000616707	3	7.18127e-06	-2.03413e-08
2	0	0	0	0	53.7675	0.0101753	0.00996732	-0.000661559	3	6.87549e-06	-6.59397e-09
2	0	0	0	0	54.2275	-0.0128255	-0.0130809	-0.000548794	3	6.59474e-06	7.1787e-09
2	0	0	0	0	54.6875	-0.0358263	-0.0360792	-0.000444791	3	6.36713e-06	1.60477e-08
2	0	0	0	0	55.1475	-0.0588272	-0.0590288	-0.000379047	3	6.17773e-06	2.23747e-08
2	0	0	0	0	55.6075	-0.081828	-0.0820504	-0.000338583	3	6.01265e-06	2.77809e-08
2	0	0	1	0	56.0677	-0.104829	-0.105075	-0.000306892	3	5.86386e-06	3.22467e-08
2	0	0	1	0	56.5277	-0.12783	-0.128015	-0.000286704	3	5.72683e-06	3.67025e-08
2	0	0	1	0	56.9877	-0.150831	-0.151055	-0.000268338	3	5.59842e-06	4.05339e-08
2	0	0	1	0	57.4477	-0.173831	-0.174094	-0.000258079	3	5.47609e-06	4.493e-08
2	0	0	1	0	57.9077	-0.196832	-0.197062	-0.000255673	3	5.35738e-06	5.03836e-08
2	1	0	0	1	58.3571	-0.180732	-0.180854	-9.39263e-05	3	5.29723e-06	1.6987e-08
2	1	0	0	1	58.8171	-0.157731	-0.157863	-6.70117e-05	3	5.26235e-06	1.05787e-08
2	1	0	0	1	59.2771	-0.13473	-0.134885	-4.924e-05	3	5.23772e-06	6.64173e-09
2	1	0	0	1	59.7371	-0.111729	-0.111923	-3.44976e-05	3	5.22038e-06	3.86107e-09
2	1	0	1	1	60.1973	-0.0887283	-0.0888565	-2.31627e-05	3	5.20888e-06	2.05815e-09
2	1	0	0	1	60.6398	-0.0666024	-0.0667051	-1.53817e-05	3	5.2023e-06	1.02604e-09