File: AutoAnalysis Examples/EC/C000A-10ppb-B_C01.mpt
EC-Lab ASCII FILE
Nb header lines : 59

Cyclic Voltammetry

Run on channel : 1 (SN 22398)
User :
CE vs. WE compliance from -10 V to 10 V
Electrode connection : standard
Ewe ctrl range : min = -1.00 V, max = 1.00 V
Safety Limits :
	Ewe min = -2.00 V
	Ewe max = 2.00 V
	|I| = 50.000 mA
	for t > 10 ms
Acquisition started on : 11/21/2018 11:42:51
Technique started on : 11/21/2018 11:42:51
Saved on :
	File : C000A-10ppb-B_C01.mpr
	Directory : \\ECCOMPUTER\Users\Lab User\Google Drive\Electrochemical Data\EC-Lab\Data\FREDsense\Tim\2018.11.21 - EC comparison to High Throughput\
	Host : 172.16.1.30
Device : SP-50 (SN 0301030103010301)
Address : USB
EC-Lab for windows v11.02 (software)
Internet server v11.02 (firmware)
Command interpretor v11.02 (firmware)
Electrode material : Au/Pd
Initial state :
Electrolyte : NaCl (0.2M)
Comments : Fe(CN)63-/Fe(CN)64- 5.10-3 M
Reference electrode : SCE Saturated Calomel Electrode (0.241 V)
Electrode surface area : 0.001 cm²
Characteristic mass : 0.001 g
Equivalent Weight : 0.000 g/eq.
Density : 0.000 g/cm3
Cycle Definition : Charge/Discharge alternance
Ei (V)              -0.100
vs.                 Ref
dE/dt               50.000
dE/dt unit          mV/s
E1 (V)              0.300
vs.                 Ref
Step percent        50
N                   10
E range min (V)     -1.000
E range max (V)     1.000
I Range             Auto
I Range min         Unset
I Range max         Unset
I Range init        Unset
Bandwidth           5
E2 (V)              -0.200
vs.                 Ref
nc cycles           2
Reverse Scan        1
Ef (V)              0.000
vs.                 Eoc

mode	ox/red	error	control changes	counter inc.	time/s	control/V	Ewe/V	<I>/mA	cycle number	(Q-Qo)/C	P/W
2	1	0	1	0	0.000000000000000E+000	-0.0984851	-0.0986249	-4.3168e-05	1	0.0000000E+000	4.25744e-09
2	1	0	1	0	0.4865	-0.0741592	-0.0743745	6.09973e-05	1	2.06527e-08	-4.53664e-09
2	1	0	1	0	0.9465	-0.0511582	-0.0513263	7.19454e-05	1	5.2126e-08	-3.69269e-09
2	1	0	1	0	1.4065	-0.0281573	-0.0283513	8.40982e-05	1	8.86819e-08	-2.38429e-09
2	1	0	1	0	1.8665	-0.00515635	-0.00536252	0.00010948	1	1.33179e-07	-5.87086e-10
2	1	0	1	0	2.3265	0.0178446	0.0176432	0.000188192	1	1.99203e-07	3.32032e-09
2	1	0	1	0	2.7865	0.0408455	0.0407317	0.000422609	1	3.33154e-07	1.72136e-08
2	1	0	1	0	3.2465	0.0638464	0.0636145	0.000769587	1	6.10652e-07	4.89569e-08
2	1	0	1	0	3.7065	0.0868473	0.0867082	0.000876795	1	1.0031e-06	7.60253e-08
2	1	0	1	0	4.1665	0.109848	0.109683	0.00077967	1	1.38765e-06	8.55167e-08
2	1	0	1	0	4.6265	0.132849	0.132695	0.00068398	1	1.72405e-06	9.0761e-08
2	1	0	0	0	5.0867	0.15585	0.155716	0.000625684	1	2.02515e-06	9.7429e-08
2	1	0	0	0	5.5467	0.178851	0.178733	0.000591778	1	2.30498e-06	1.0577e-07
2	1	0	0	0	6.0067	0.201852	0.201653	0.000571207	1	2.57282e-06	1.15186e-07
2	1	0	0	0	6.4667	0.224853	0.224711	0.000564945	1	2.83477e-06	1.26949e-07
2	1	0	0	0	6.9267	0.247854	0.24771	0.000563042	1	3.095e-06	1.39471e-07
2	1	0	0	0	7.3867	0.270855	0.270735	0.000570405	1	3.3568e-06	1.54429e-07
2	1	0	0	0	7.8467	0.293856	0.293738	0.00058204	1	3.6228e-06	1.70967e-07
2	0	0	1	0	8.2953	0.283705	0.283495	0.000346828	1	3.82381e-06	9.83241e-08
2	0	0	1	0	8.7553	0.260704	0.260511	0.000276051	1	3.96544e-06	7.19143e-08
2	0	0	1	0	9.2153	0.237703	0.237456	0.000239089	1	4.08241e-06	5.6773e-08
2	0	0	1	0	9.6753	0.214702	0.214473	0.000213079	1	4.18511e-06	4.56997e-08
2	0	0	1	0	10.1353	0.191702	0.191493	0.000193329	1	4.27739e-06	3.70211e-08
2	0	0	1	0	10.5953	0.168701	0.168477	0.000174266	1	4.36065e-06	2.93597e-08
2	0	0	0	0	11.0555	0.1457	0.145461	0.000154519	1	4.43534e-06	2.24766e-08
2	0	0	0	0	11.5155	0.122699	0.122478	0.00012616	1	4.49943e-06	1.54518e-08
2	0	0	0	0	11.9755	0.0996979	0.0995177	6.50812e-05	1	4.54471e-06	6.47673e-09
2	0	0	0	0	12.4355	0.0766969	0.0764844	-8.94855e-05	1	4.54369e-06	-6.84425e-09
2	0	0	0	0	12.8955	0.053696	0.0534914	-0.000420226	1	4.43021e-06	-2.24784e-08
2	0	0	0	0	13.3555	0.0306951	0.0304782	-0.000685146	1	4.16265e-06	-2.0882e-08
2	0	0	0	0	13.8155	0.00769417	0.00746817	-0.000619842	1	3.85232e-06	-4.62909e-09
2	0	0	0	0	14.2755	-0.0153068	-0.0155365	-0.000483779	1	3.59903e-06	7.51624e-09
2	0	0	0	0	14.7355	-0.0383077	-0.0384745	-0.000389718	1	3.39924e-06	1.49942e-08
2	0	0	0	0	15.1955	-0.0613086	-0.0615576	-0.000336652	1	3.23177e-06	2.07235e-08
2	0	0	0	0	15.6555	-0.0843096	-0.0845634	-0.000302705	1	3.08432e-06	2.55978e-08
2	0	0	1	0	16.1157	-0.107311	-0.107639	-0.000278357	1	2.95023e-06	2.99622e-08
2	0	0	1	0	16.5757	-0.130311	-0.13052	-0.000262117	1	2.82563e-06	3.42115e-08
2	0	0	1	0	17.0357	-0.153312	-0.153523	-0.000247059	1	2.70771e-06	3.79293e-08
2	0	0	1	0	17.4957	-0.176313	-0.176557	-0.000242673	1	2.59396e-06	4.28455e-08
2	0	0	1	0	17.9557	-0.199314	-0.199587	-0.00024321	1	2.48194e-06	4.85415e-08
2	1	0	0	1	18.4051	-0.178213	-0.17842	-5.81338e-05	1	2.44351e-06	1.03723e-08
2	1	0	0	1	18.8651	-0.155212	-0.155454	-2.85555e-05	1	2.42539e-06	4.43906e-09
2	1	0	0	1	19.3251	-0.132212	-0.132439	-1.22216e-05	1	2.41753e-06	1.61861e-09
2	1	0	0	1	19.7851	-0.109211	-0.109373	3.17959e-06	1	2.41678e-06	-3.47763e-10
2	1	0	1	1	20.2453	-0.0862097	-0.0864525	1.43043e-05	2	2.42155e-06	-1.23665e-09
2	1	0	1	1	20.7053	-0.0632087	-0.0633969	2.22072e-05	2	2.43086e-06	-1.40787e-09
2	1	0	1	1	21.1653	-0.0402078	-0.0404028	3.16998e-05	2	2.44431e-06	-1.28076e-09
2	1	0	1	1	21.6253	-0.0172068	-0.0174002	4.5884e-05	2	2.46305e-06	-7.98392e-10
2	1	0	1	1	22.0853	0.00579409	0.00563521	8.76204e-05	2	2.49369e-06	4.9376e-10
2	1	0	1	1	22.5453	0.028795	0.0285858	0.00022477	2	2.5617e-06	6.42525e-09
2	1	0	1	1	23.0053	0.0517959	0.0516648	0.000533305	2	2.73133e-06	2.75531e-08
2	1	0	1	1	23.4653	0.0747969	0.0745836	0.000820366	2	3.05218e-06	6.11858e-08
2	1	0	1	1	23.9253	0.0977978	0.097689	0.000822685	2	3.44135e-06	8.03673e-08
2	1	0	1	1	24.3853	0.120799	0.120583	0.000708911	2	3.79564e-06	8.54829e-08
2	1	0	1	1	24.8453	0.1438	0.143608	0.000612851	2	4.09946e-06	8.80105e-08
2	1	0	0	1	25.3055	0.166801	0.166652	0.000552391	2	4.36785e-06	9.20572e-08
2	1	0	0	1	25.7655	0.189801	0.189592	0.000513786	2	4.61328e-06	9.74099e-08
2	1	0	0	1	26.2255	0.212802	0.212571	0.00048876	2	4.84413e-06	1.03896e-07
2	1	0	0	1	26.6855	0.235803	0.235651	0.000474995	2	5.06619e-06	1.11933e-07
2	1	0	0	1	27.1455	0.258804	0.25865	0.000468756	2	5.28404e-06	1.21244e-07
2	1	0	0	1	27.6055	0.281805	0.281661	0.000475588	2	5.50239e-06	1.33955e-07
2	0	0	0	1	28.0551	0.295706	0.295503	0.000342321	2	5.7097e-06	1.01157e-07
2	0	0	0	1	28.5151	0.272705	0.272491	0.00026273	2	5.84483e-06	7.15916e-08
2	0	0	0	1	28.9751	0.249704	0.249503	0.00022518	2	5.95532e-06	5.61831e-08
2	0	0	0	1	29.4351	0.226703	0.226535	0.000202312	2	6.05214e-06	4.58309e-08
2	0	0	0	1	29.8951	0.203702	0.20351	0.000180833	2	6.13916e-06	3.68013e-08
2	0	0	0	1	30.3551	0.180701	0.180524	0.000163425	2	6.21812e-06	2.95022e-08
2	0	0	0	1	30.8151	0.1577	0.15751	0.000148183	2	6.28923e-06	2.33403e-08
2	0	0	1	1	31.2753	0.134699	0.134503	0.000125918	2	6.35164e-06	1.69363e-08
2	0	0	1	1	31.7353	0.111698	0.111483	8.75427e-05	2	6.40102e-06	9.75955e-09
2	0	0	1	1	32.1953	0.0886974	0.0885465	-7.78796e-06	2	6.42247e-06	-6.89597e-10
2	0	0	1	1	32.6553	0.0656965	0.0654813	-0.000241652	2	6.37202e-06	-1.58237e-08
2	0	0	1	1	33.1153	0.0426956	0.0424756	-0.000601589	2	6.1767e-06	-2.55528e-08
2	0	0	1	1	33.5753	0.0196946	0.0194868	-0.000726406	2	5.85551e-06	-1.41553e-08
2	0	0	1	1	34.0353	-0.00330628	-0.00356349	-0.000598059	2	5.54664e-06	2.13118e-09
2	0	0	1	1	34.4953	-0.0263072	-0.0265724	-0.000472133	2	5.30158e-06	1.25457e-08
2	0	0	1	1	34.9553	-0.0493081	-0.0495432	-0.000397741	2	5.10218e-06	1.97054e-08
2	0	0	1	1	35.4153	-0.0723091	-0.0725723	-0.000349367	2	4.93041e-06	2.53543e-08
2	0	0	1	1	35.8753	-0.09531	-0.0955813	-0.00031658	2	4.77665e-06	3.02592e-08
2	0	0	0	1	36.3355	-0.118311	-0.118557	-0.000293879	2	4.63546e-06	3.48415e-08
2	0	0	0	1	36.7955	-0.141312	-0.141502	-0.000275275	2	4.50342e-06	3.89519e-08
2	0	0	0	1	37.2555	-0.164313	-0.164518	-0.000265434	2	4.37778e-06	4.36688e-08
2	0	0	0	1	37.7155	-0.187314	-0.187509	-0.000260563	2	4.25605e-06	4.88578e-08
2	1	0	1	0	38.1649	-0.190214	-0.190339	-9.77593e-05	2	4.16714e-06	1.86075e-08
2	1	0	1	0	38.6249	-0.167213	-0.167415	-5.6484e-05	2	4.13353e-06	9.45628e-09
2	1	0	1	0	39.0849	-0.144212	-0.144396	-3.66191e-05	2	4.11341e-06	5.28764e-09
2	1	0	1	0	39.5449	-0.121211	-0.12137	-1.87096e-05	2	4.10204e-06	2.27078e-09
2	1	0	0	0	40.0051	-0.0982101	-0.098415	-7.25275e-06	3	4.09728e-06	7.13779e-10
2	1	0	0	0	40.4651	-0.0752092	-0.0754071	3.79253e-06	3	4.09779e-06	-2.85983e-10
2	1	0	0	0	40.9251	-0.0522083	-0.0524617	1.59312e-05	3	4.10275e-06	-8.35778e-10
2	1	0	0	0	41.3851	-0.0292073	-0.0293977	2.22319e-05	3	4.11232e-06	-6.53567e-10
2	1	0	0	0	41.8451	-0.0062064	-0.00639084	4.81026e-05	3	4.12944e-06	-3.07416e-10
2	1	0	0	0	42.3051	0.0167945	0.0166128	0.000124724	3	4.16729e-06	2.07201e-09
2	1	0	0	0	42.7651	0.0397955	0.0396726	0.000336101	3	4.26767e-06	1.3334e-08
2	1	0	0	0	43.2251	0.0627964	0.0626423	0.000677846	3	4.50156e-06	4.24618e-08
2	1	0	0	0	43.6851	0.0857973	0.0856492	0.000845706	3	4.86546e-06	7.2434e-08
2	1	0	0	0	44.1451	0.108798	0.108664	0.000774732	3	5.24494e-06	8.41859e-08
2	1	0	0	0	44.6051	0.131799	0.131637	0.000659896	3	5.57515e-06	8.68669e-08
2	1	0	1	0	45.0653	0.1548	0.154638	0.000577345	3	5.8598e-06	8.92793e-08
2	1	0	1	0	45.5253	0.177801	0.177637	0.000524685	3	6.11352e-06	9.32036e-08
2	1	0	1	0	45.9853	0.200802	0.200642	0.000487584	3	6.34701e-06	9.78297e-08
2	1	0	1	0	46.4453	0.223803	0.223685	0.000466341	3	6.56722e-06	1.04313e-07
2	1	0	1	0	46.9053	0.246804	0.246653	0.000452621	3	6.77892e-06	1.11641e-07
2	1	0	1	0	47.3653	0.269805	0.269666	0.000445835	3	6.98634e-06	1.20226e-07
2	1	0	1	0	47.8253	0.292806	0.292652	0.000454792	3	7.1943e-06	1.33096e-07
2	0	0	1	0	48.2749	0.284705	0.284487	0.000277799	3	7.3534e-06	7.90303e-08
2	0	0	1	0	48.7349	0.261704	0.26149	0.000230283	3	7.46786e-06	6.02167e-08
2	0	0	1	0	49.1949	0.238703	0.23849	0.000204056	3	7.56654e-06	4.86654e-08
2	0	0	1	0	49.6549	0.215703	0.215487	0.000185336	3	7.6548e-06	3.99374e-08
2	0	0	1	0	50.1149	0.192702	0.192491	0.000166239	3	7.73469e-06	3.19995e-08
2	0	0	1	0	50.5749	0.169701	0.169542	0.000151189	3	7.80698e-06	2.5633e-08
2	0	0	0	0	51.0351	0.1467	0.146463	0.000132738	3	7.8713e-06	1.94412e-08
2	0	0	0	0	51.4951	0.123699	0.123496	0.000106067	3	7.92556e-06	1.30988e-08
2	0	0	0	0	51.9551	0.100698	0.100458	4.88815e-05	3	7.96189e-06	4.91054e-09
2	0	0	0	0	52.4151	0.077697	0.0775	-9.9093e-05	3	7.95493e-06	-7.6797e-09
2	0	0	0	0	52.8751	0.0546961	0.054491	-0.000413043	3	7.84281e-06	-2.25072e-08
2	0	0	0	0	53.3351	0.0316951	0.0314376	-0.000717226	3	7.57317e-06	-2.25478e-08
2	0	0	0	0	53.7951	0.00869421	0.00849013	-0.000695363	3	7.23636e-06	-5.90372e-09
2	0	0	0	0	54.2551	-0.0143067	-0.0145188	-0.000550174	3	6.94942e-06	7.98787e-09
2	0	0	0	0	54.7151	-0.0373077	-0.037567	-0.000449975	3	6.72082e-06	1.69042e-08
2	0	0	0	0	55.1751	-0.0603086	-0.0605728	-0.000387653	3	6.52905e-06	2.34812e-08
2	0	0	0	0	55.6351	-0.0833095	-0.083499	-0.000345344	3	6.36037e-06	2.88359e-08
2	0	0	1	0	56.0953	-0.10631	-0.106581	-0.00031728	3	6.2073e-06	3.38161e-08
2	0	0	1	0	56.5553	-0.129311	-0.129581	-0.000295218	3	6.06557e-06	3.82545e-08
2	0	0	1	0	57.0153	-0.152312	-0.152538	-0.000281217	3	5.93211e-06	4.28962e-08
2	0	0	1	0	57.4753	-0.175313	-0.175559	-0.000272108	3	5.8043e-06	4.77711e-08
2	0	0	1	0	57.9353	-0.198314	-0.198518	-0.000267816	3	5.67951e-06	5.31663e-08
2	1	0	0	1	58.3847	-0.179213	-0.17942	-8.13018e-05	3	5.62671e-06	1.45872e-08
2	1	0	0	1	58.8447	-0.156213	-0.156407	-5.25325e-05	3	5.59702e-06	8.21646e-09
2	1	0	0	1	59.3047	-0.133212	-0.133427	-3.27842e-05	3	5.57811e-06	4.37429e-09
2	1	0	0	1	59.7647	-0.110211	-0.110402	-1.99284e-05	3	5.56685e-06	2.20013e-09
2	1	0	1	1	60.2249	-0.0872097	-0.0874141	-9.16929e-06	3	5.56159e-06	8.01525e-10
2	1	0	0	1	60.469	-0.0749842	-0.0751537	9.82191e-07	3	5.56075e-06	-7.38153e-11