File: AutoAnalysis Examples/EC/C000A-20ppb-A_C01.mpt
EC-Lab ASCII FILE
Nb header lines : 59

Cyclic Voltammetry

Run on channel : 1 (SN 22398)
User :
CE vs. WE compliance from -10 V to 10 V
Electrode connection : standard
Ewe ctrl range : min = -1.00 V, max = 1.00 V
Safety Limits :
	Ewe min = -2.00 V
	Ewe max = 2.00 V
	|I| = 50.000 mA
	for t > 10 ms
Acquisition started on : 11/21/2018 10:44:14
Technique started on : 11/21/2018 10:44:14
Saved on :
	File : C000A-20ppb-A_C01.mpr
	Directory : \\ECCOMPUTER\Users\Lab User\Google Drive\Electrochemical Data\EC-Lab\Data\FREDsense\Tim\2018.11.21 - EC comparison to High Throughput\
	Host : 172.16.1.30
Device : SP-50 (SN 0301030103010301)
Address : USB
EC-Lab for windows v11.02 (software)
Internet server v11.02 (firmware)
Command interpretor v11.02 (firmware)
Electrode material : Au/Pd
Initial state :
Electrolyte : NaCl (0.2M)
Comments : Fe(CN)63-/Fe(CN)64- 5.10-3 M
Reference electrode : SCE Saturated Calomel Electrode (0.241 V)
Electrode surface area : 0.001 cm²
Characteristic mass : 0.001 g
Equivalent Weight : 0.000 g/eq.
Density : 0.000 g/cm3
Cycle Definition : Charge/Discharge alternance
Ei (V)              -0.100
vs.                 Ref
dE/dt               50.000
dE/dt unit          mV/s
E1 (V)              0.300
vs.                 Ref
Step percent        50
N                   10
E range min (V)     -1.000
E range max (V)     1.000
I Range             Auto
I Range min         Unset
I Range max         Unset
I Range init        Unset
Bandwidth           5
E2 (V)              -0.200
vs.                 Ref
nc cycles           2
Reverse Scan        1
Ef (V)              0.000
vs.                 Eoc

mode	ox/red	error	control changes	counter inc.	time/s	control/V	Ewe/V	<I>/mA	cycle number	(Q-Qo)/C	P/W
2	1	0	1	0	0.000000000000000E+000	-0.0984998	-0.0986864	-8.64074e-05	1	0.0000000E+000	8.52724e-09
2	1	0	1	0	0.4965	-0.0736739	-0.0737565	4.51756e-05	1	1.59978e-08	-3.332e-09
2	1	0	1	0	0.9665	-0.0501731	-0.0502239	5.66961e-05	1	4.14945e-08	-2.8475e-09
2	1	0	1	0	1.4365	-0.0266722	-0.0267135	6.91492e-05	1	7.14436e-08	-1.84721e-09
2	1	0	1	0	1.9065	-0.00317132	-0.00322641	9.19516e-05	1	1.0906e-07	-2.96673e-10
2	1	0	1	0	2.3765	0.0203295	0.0202585	0.000170447	1	1.68746e-07	3.453e-09
2	1	0	1	0	2.8465	0.0438304	0.0437795	0.000399746	1	2.96776e-07	1.75007e-08
2	1	0	1	0	3.3165	0.0673313	0.0672337	0.0007318	1	5.65121e-07	4.92016e-08
2	1	0	1	0	3.7865	0.0908321	0.0906942	0.000868454	1	9.54284e-07	7.87638e-08
2	1	0	1	0	4.2565	0.114333	0.114282	0.000795509	1	1.35014e-06	9.09124e-08
2	1	0	1	0	4.7265	0.137834	0.137672	0.000696536	1	1.70105e-06	9.58932e-08
2	1	0	1	0	5.1965	0.161335	0.161361	0.000630642	1	2.01306e-06	1.01761e-07
2	1	0	0	0	5.6667	0.184836	0.184774	0.000587816	1	2.29988e-06	1.08613e-07
2	1	0	0	0	6.1367	0.208336	0.20824	0.000565374	1	2.57127e-06	1.17733e-07
2	1	0	0	0	6.6067	0.231837	0.231794	0.000550103	1	2.83418e-06	1.2751e-07
2	1	0	0	0	7.0767	0.255338	0.255216	0.000548651	1	3.09329e-06	1.40025e-07
2	1	0	0	0	7.5467	0.278839	0.278712	0.000550679	1	3.35383e-06	1.53481e-07
2	0	0	1	0	7.9961	0.29869	0.298522	0.000450664	1	3.60104e-06	1.34533e-07
2	0	0	1	0	8.4661	0.275189	0.275029	0.000316849	1	3.77258e-06	8.71426e-08
2	0	0	1	0	8.9361	0.251688	0.251589	0.000265461	1	3.90676e-06	6.67872e-08
2	0	0	1	0	9.4061	0.228187	0.228	0.000231493	1	4.02182e-06	5.27806e-08
2	0	0	1	0	9.8761	0.204686	0.204597	0.000206248	1	4.12384e-06	4.21978e-08
2	0	0	1	0	10.3461	0.181185	0.181066	0.000187959	1	4.21546e-06	3.40329e-08
2	0	0	0	0	10.8163	0.157685	0.157571	0.000165633	1	4.29742e-06	2.6099e-08
2	0	0	0	0	11.2863	0.134184	0.134061	0.000138973	1	4.36835e-06	1.86308e-08
2	0	0	0	0	11.7563	0.110683	0.110563	9.43327e-05	1	4.4237e-06	1.04297e-08
2	0	0	0	0	12.2263	0.087182	0.0870146	-3.29955e-06	1	4.44793e-06	-2.87109e-10
2	0	0	0	0	12.6963	0.0636811	0.0635243	-0.000227648	1	4.39878e-06	-1.44612e-08
2	0	0	0	0	13.1663	0.0401803	0.0401136	-0.000549778	1	4.2131e-06	-2.20536e-08
2	0	0	0	0	13.6363	0.0166794	0.0165545	-0.000652114	1	3.91718e-06	-1.07954e-08
2	0	0	0	0	14.1063	-0.00682146	-0.00689338	-0.000537435	1	3.63413e-06	3.70474e-09
2	0	0	0	0	14.5763	-0.0303223	-0.0305108	-0.000425228	1	3.40894e-06	1.29741e-08
2	0	0	0	0	15.0463	-0.0538232	-0.0539852	-0.000353473	1	3.22627e-06	1.90823e-08
2	0	0	0	0	15.5163	-0.0773241	-0.0774373	-0.000310352	1	3.06979e-06	2.40328e-08
2	0	0	1	0	15.9865	-0.100825	-0.100907	-0.000281987	1	2.93009e-06	2.84546e-08
2	0	0	1	0	16.4565	-0.124326	-0.12446	-0.000261439	1	2.80204e-06	3.25387e-08
2	0	0	1	0	16.9265	-0.147827	-0.147921	-0.000245119	1	2.68221e-06	3.62582e-08
2	0	0	1	0	17.3965	-0.171328	-0.171411	-0.000236165	1	2.56793e-06	4.04813e-08
2	0	0	1	0	17.8665	-0.194828	-0.194935	-0.000231786	1	2.45684e-06	4.51833e-08
2	1	0	0	1	18.3259	-0.182228	-0.182322	-7.95195e-05	1	2.39754e-06	1.44981e-08
2	1	0	0	1	18.7959	-0.158727	-0.158787	-5.01603e-05	1	2.36941e-06	7.9648e-09
2	1	0	0	1	19.2659	-0.135226	-0.135311	-3.11697e-05	1	2.35199e-06	4.2176e-09
2	1	0	0	1	19.7359	-0.111725	-0.111832	-1.8918e-05	1	2.34193e-06	2.11564e-09
2	1	0	1	1	20.2061	-0.0882245	-0.0882569	-7.97874e-06	2	2.33752e-06	7.04178e-10
2	1	0	1	1	20.6761	-0.0647236	-0.0648419	3.67065e-06	2	2.33774e-06	-2.38012e-10
2	1	0	1	1	21.1461	-0.0412227	-0.0412743	1.08351e-05	2	2.34228e-06	-4.47213e-10
2	1	0	1	1	21.6161	-0.0177219	-0.0178031	2.56799e-05	2	2.35222e-06	-4.57183e-10
2	1	0	1	1	22.0861	0.00577901	0.00571256	6.54839e-05	2	2.37366e-06	3.74081e-10
2	1	0	1	1	22.5561	0.0292799	0.0292611	0.000184611	2	2.42908e-06	5.40193e-09
2	1	0	1	1	23.0261	0.0527807	0.0527545	0.000451118	2	2.57417e-06	2.37985e-08
2	1	0	1	1	23.4961	0.0762816	0.076266	0.000728384	2	2.85825e-06	5.55509e-08
2	1	0	1	1	23.9661	0.0997824	0.0996629	0.000772864	2	3.222e-06	7.70258e-08
2	1	0	1	1	24.4361	0.123283	0.123245	0.000681276	2	3.56705e-06	8.39641e-08
2	1	0	1	1	24.9061	0.146784	0.146656	0.000591206	2	3.8661e-06	8.67039e-08
2	1	0	1	1	25.3761	0.170285	0.170181	0.000527942	2	4.12911e-06	8.98459e-08
2	1	0	0	1	25.8463	0.193786	0.193708	0.000486481	2	4.36812e-06	9.42351e-08
2	1	0	0	1	26.3163	0.217287	0.217201	0.000458871	2	4.59151e-06	9.96672e-08
2	1	0	0	1	26.7863	0.240788	0.240641	0.000447668	2	4.80552e-06	1.07728e-07
2	1	0	0	1	27.2563	0.264288	0.264204	0.000441537	2	5.01509e-06	1.16656e-07
2	1	0	0	1	27.7263	0.287789	0.287732	0.000449048	2	5.22512e-06	1.29206e-07
2	0	0	0	1	28.1767	0.289689	0.289606	0.000300167	2	5.40327e-06	8.69304e-08
2	0	0	0	1	28.6467	0.266189	0.266072	0.000241458	2	5.52746e-06	6.4245e-08
2	0	0	0	1	29.1167	0.242688	0.242566	0.000210044	2	5.6316e-06	5.09494e-08
2	0	0	0	1	29.5867	0.219187	0.219086	0.000187533	2	5.72341e-06	4.10858e-08
2	0	0	0	1	30.0567	0.195686	0.195513	0.000168484	2	5.80581e-06	3.29409e-08
2	0	0	0	1	30.5268	0.172184	0.17207	0.000150746	2	5.87992e-06	2.59388e-08
2	0	0	1	1	30.9969	0.148684	0.148546	0.000129537	2	5.94539e-06	1.92422e-08
2	0	0	1	1	31.4669	0.125183	0.125031	0.00010335	2	6.00006e-06	1.29219e-08
2	0	0	1	1	31.9369	0.101683	0.101563	5.10807e-05	2	6.03658e-06	5.18789e-09
2	0	0	1	1	32.4069	0.0781817	0.0780512	-8.16092e-05	2	6.03252e-06	-6.3697e-09
2	0	0	1	1	32.8769	0.0546808	0.0546235	-0.000356303	2	5.93454e-06	-1.94625e-08
2	0	0	1	1	33.3469	0.0311799	0.0310262	-0.000633431	2	5.69426e-06	-1.9653e-08
2	0	0	1	1	33.8169	0.00767908	0.00754976	-0.000637921	2	5.38389e-06	-4.81615e-09
2	0	0	1	1	34.2869	-0.0158218	-0.0159362	-0.000511682	2	5.11189e-06	8.1543e-09
2	0	0	1	1	34.7569	-0.0393227	-0.0394244	-0.000417108	2	4.89428e-06	1.64442e-08
2	0	0	1	1	35.2269	-0.0628235	-0.0629454	-0.000357538	2	4.71274e-06	2.25054e-08
2	0	0	1	1	35.6969	-0.0863244	-0.0864568	-0.000318716	2	4.55383e-06	2.75552e-08
2	0	0	0	1	36.1671	-0.109825	-0.109957	-0.000291524	2	4.41003e-06	3.2055e-08
2	0	0	0	1	36.6371	-0.133326	-0.133462	-0.000271357	2	4.27708e-06	3.62158e-08
2	0	0	0	1	37.1071	-0.156827	-0.156907	-0.000259724	2	4.15188e-06	4.07526e-08
2	0	0	0	1	37.5771	-0.180328	-0.180443	-0.000252699	2	4.03188e-06	4.55978e-08
2	1	0	1	0	38.0365	-0.196728	-0.196802	-0.000128956	2	3.92436e-06	2.53787e-08
2	1	0	1	0	38.5065	-0.173228	-0.173306	-7.76525e-05	2	3.87937e-06	1.34577e-08
2	1	0	1	0	38.9765	-0.149727	-0.149782	-5.27445e-05	2	3.85005e-06	7.90019e-09
2	1	0	1	0	39.4465	-0.126226	-0.126275	-3.77178e-05	2	3.82995e-06	4.76282e-09
2	1	0	1	0	39.9165	-0.102725	-0.102811	-2.33905e-05	2	3.81671e-06	2.40481e-09
2	1	0	0	0	40.3867	-0.0792241	-0.0793179	-1.39227e-05	3	3.8089e-06	1.10432e-09
2	1	0	0	0	40.8567	-0.0557233	-0.0557842	-7.18562e-06	3	3.8057e-06	4.00844e-10
2	1	0	0	0	41.3267	-0.0322224	-0.0323268	6.49158e-06	3	3.80713e-06	-2.09852e-10
2	1	0	0	0	41.7967	-0.00872153	-0.00880584	2.77449e-05	3	3.81551e-06	-2.44317e-10
2	1	0	0	0	42.2667	0.0147793	0.0147332	8.77564e-05	3	3.84134e-06	1.29293e-09
2	1	0	0	0	42.7367	0.0382802	0.0381842	0.000255159	3	3.91738e-06	9.74305e-09
2	1	0	0	0	43.2067	0.0617811	0.0617062	0.000544947	3	4.10504e-06	3.36266e-08
2	1	0	0	0	43.6767	0.0852819	0.0852728	0.00075013	3	4.42086e-06	6.39657e-08
2	1	0	0	0	44.1467	0.108783	0.108746	0.000729163	3	4.77645e-06	7.92936e-08
2	1	0	0	0	44.6167	0.132284	0.132245	0.000627703	3	5.0968e-06	8.30104e-08
2	1	0	0	0	45.0867	0.155784	0.155677	0.000547201	3	5.3735e-06	8.51865e-08
2	1	0	1	0	45.5569	0.179285	0.179166	0.000492989	3	5.61862e-06	8.83268e-08
2	1	0	1	0	46.0269	0.202786	0.202704	0.000455432	3	5.84242e-06	9.23177e-08
2	1	0	1	0	46.4969	0.226287	0.226136	0.000433719	3	6.05231e-06	9.80794e-08
2	1	0	1	0	46.9669	0.249788	0.249648	0.000417952	3	6.25334e-06	1.04341e-07
2	1	0	1	0	47.4369	0.273289	0.273199	0.000412959	3	6.45006e-06	1.1282e-07
2	1	0	1	0	47.9069	0.29679	0.296716	0.000419879	3	6.64735e-06	1.24585e-07
2	0	0	1	0	48.3573	0.280689	0.280522	0.000250427	3	6.78318e-06	7.02504e-08
2	0	0	1	0	48.8273	0.257188	0.257069	0.00021245	3	6.89024e-06	5.46143e-08
2	0	0	1	0	49.2973	0.233687	0.233571	0.000188565	3	6.98295e-06	4.40433e-08
2	0	0	1	0	49.7673	0.210187	0.210028	0.000168438	3	7.06573e-06	3.53768e-08
2	0	0	1	0	50.2373	0.186686	0.186541	0.000152142	3	7.14027e-06	2.83807e-08
2	0	0	0	0	50.7075	0.163185	0.163046	0.000135361	3	7.20697e-06	2.207e-08
2	0	0	0	0	51.1775	0.139684	0.139542	0.000113442	3	7.26485e-06	1.58298e-08
2	0	0	0	0	51.6475	0.116183	0.116029	8.15086e-05	3	7.31042e-06	9.45738e-09
2	0	0	0	0	52.1175	0.0926822	0.0925919	6.43859e-06	3	7.33255e-06	5.96161e-10
2	0	0	0	0	52.5875	0.0691813	0.0691207	-0.000168657	3	7.29935e-06	-1.16577e-08
2	0	0	0	0	53.0575	0.0456805	0.0456125	-0.000474975	3	7.1499e-06	-2.16648e-08
2	0	0	0	0	53.5275	0.0221796	0.0220819	-0.000667994	3	6.86889e-06	-1.47506e-08
2	0	0	0	0	53.9975	-0.00132125	-0.00140511	-0.000599057	3	6.56338e-06	8.41742e-10
2	0	0	0	0	54.4675	-0.0248221	-0.0248954	-0.00048071	3	6.31012e-06	1.19675e-08
2	0	0	0	0	54.9375	-0.048323	-0.048428	-0.00039884	3	6.10466e-06	1.9315e-08
2	0	0	0	0	55.4075	-0.0718239	-0.0720221	-0.000346913	3	5.92932e-06	2.49854e-08
2	0	0	0	0	55.8775	-0.0953247	-0.0954488	-0.000314376	3	5.77339e-06	3.00068e-08
2	0	0	1	0	56.3477	-0.118826	-0.118961	-0.000288744	3	5.63088e-06	3.43493e-08
2	0	0	1	0	56.8177	-0.142326	-0.142427	-0.000271285	3	5.49822e-06	3.86383e-08
2	0	0	1	0	57.2877	-0.165827	-0.165967	-0.000260104	3	5.37258e-06	4.31687e-08
2	0	0	1	0	57.7577	-0.189328	-0.189414	-0.000251593	3	5.25137e-06	4.76552e-08
2	1	0	0	1	58.2171	-0.187728	-0.187773	-0.000105524	3	5.16704e-06	1.98146e-08
2	1	0	0	1	58.6871	-0.164227	-0.164299	-7.34961e-05	3	5.12765e-06	1.20753e-08
2	1	0	0	1	59.1571	-0.140726	-0.140751	-5.14303e-05	3	5.10035e-06	7.23887e-09
2	1	0	0	1	59.6271	-0.117226	-0.117283	-3.68187e-05	3	5.08119e-06	4.31821e-09
2	1	0	1	1	60.0973	-0.0937247	-0.0937865	-2.57663e-05	3	5.0683e-06	2.41654e-09
2	1	0	1	1	60.5673	-0.0702238	-0.0703249	-1.53411e-05	3	5.06053e-06	1.07886e-09
2	1	0	1	1	60.7784	-0.0596484	-0.059854	-1.2004e-07	3	5.05848e-06	7.18487e-12