File: AutoAnalysis Examples/EC/C000A-0ppb-B_C01.mpt
EC-Lab ASCII FILE
Nb header lines : 59

Cyclic Voltammetry

Run on channel : 1 (SN 22398)
User :
CE vs. WE compliance from -10 V to 10 V
Electrode connection : standard
Ewe ctrl range : min = -1.00 V, max = 1.00 V
Safety Limits :
	Ewe min = -2.00 V
	Ewe max = 2.00 V
	|I| = 50.000 mA
	for t > 10 ms
Acquisition started on : 11/21/2018 11:35:49
Technique started on : 11/21/2018 11:35:49
Saved on :
	File : C000A-0ppb-B_C01.mpr
	Directory : \\ECCOMPUTER\Users\Lab User\Google Drive\Electrochemical Data\EC-Lab\Data\FREDsense\Tim\2018.11.21 - EC comparison to High Throughput\
	Host : 172.16.1.30
Device : SP-50 (SN 0301030103010301)
Address : USB
EC-Lab for windows v11.02 (software)
Internet server v11.02 (firmware)
Command interpretor v11.02 (firmware)
Electrode material : Au/Pd
Initial state :
Electrolyte : NaCl (0.2M)
Comments : Fe(CN)63-/Fe(CN)64- 5.10-3 M
Reference electrode : SCE Saturated Calomel Electrode (0.241 V)
Electrode surface area : 0.001 cm²
Characteristic mass : 0.001 g
Equivalent Weight : 0.000 g/eq.
Density : 0.000 g/cm3
Cycle Definition : Charge/Discharge alternance
Ei (V)              -0.100
vs.                 Ref
dE/dt               50.000
dE/dt unit          mV/s
E1 (V)              0.300
vs.                 Ref
Step percent        50
N                   10
E range min (V)     -1.000
E range max (V)     1.000
I Range             Auto
I Range min         Unset
I Range max         Unset
I Range init        Unset
Bandwidth           5
E2 (V)              -0.200
vs.                 Ref
nc cycles           2
Reverse Scan        1
Ef (V)              0.000
vs.                 Eoc

mode	ox/red	error	control changes	counter inc.	time/s	control/V	Ewe/V	<I>/mA	cycle number	(Q-Qo)/C	P/W
2	1	0	1	0	0.000000000000000E+000	-0.0984851	-0.0987584	-9.14944e-05	1	0.0000000E+000	9.03584e-09
2	1	0	1	0	0.4965	-0.0736591	-0.0738498	3.95585e-05	1	1.21275e-08	-2.92139e-09
2	1	0	1	0	0.9665	-0.0501582	-0.0503341	5.13686e-05	1	3.52313e-08	-2.58559e-09
2	1	0	1	0	1.4365	-0.0266572	-0.0268671	6.19652e-05	1	6.28758e-08	-1.66483e-09
2	1	0	1	0	1.9065	-0.00315627	-0.00340553	8.66082e-05	1	9.78714e-08	-2.94947e-10
2	1	0	1	0	2.3765	0.0203447	0.0201557	0.000166373	1	1.55027e-07	3.35338e-09
2	1	0	1	0	2.8465	0.0438456	0.0436757	0.000389973	1	2.80334e-07	1.70323e-08
2	1	0	1	0	3.3165	0.0673466	0.0672168	0.000722613	1	5.44322e-07	4.85717e-08
2	1	0	1	0	3.7865	0.0908475	0.0906911	0.000875421	1	9.32381e-07	7.93929e-08
2	1	0	1	0	4.2565	0.114348	0.114177	0.000819013	1	1.33596e-06	9.35125e-08
2	1	0	1	0	4.7265	0.137849	0.13766	0.000720919	1	1.69792e-06	9.92417e-08
2	1	0	0	0	5.1967	0.16135	0.161214	0.000647962	1	2.01954e-06	1.0446e-07
2	1	0	0	0	5.6667	0.184851	0.184662	0.000600778	1	2.31356e-06	1.10941e-07
2	1	0	0	0	6.1367	0.208352	0.208201	0.000572719	1	2.59051e-06	1.1924e-07
2	1	0	0	0	6.6067	0.231853	0.231657	0.000559222	1	2.85767e-06	1.29548e-07
2	1	0	0	0	7.0767	0.255354	0.25518	0.000552742	1	3.12007e-06	1.41049e-07
2	1	0	0	0	7.5467	0.278855	0.278655	0.00055427	1	3.38152e-06	1.5445e-07
2	0	0	1	0	8.0053	0.298206	0.298063	0.000449952	1	3.63504e-06	1.34114e-07
2	0	0	1	0	8.4753	0.274705	0.274528	0.000328426	1	3.81035e-06	9.01623e-08
2	0	0	1	0	8.9453	0.251204	0.25097	0.000277287	1	3.95009e-06	6.95908e-08
2	0	0	1	0	9.4153	0.227703	0.227503	0.000244328	1	4.07127e-06	5.55854e-08
2	0	0	1	0	9.8853	0.204202	0.204012	0.000222898	1	4.18133e-06	4.54739e-08
2	0	0	1	0	10.3553	0.180701	0.180501	0.000199356	1	4.27887e-06	3.59838e-08
2	0	0	1	0	10.8253	0.1572	0.156985	0.000177809	1	4.36651e-06	2.79133e-08
2	0	0	0	0	11.2955	0.133699	0.13348	0.00014901	1	4.44276e-06	1.98898e-08
2	0	0	0	0	11.7655	0.110198	0.109991	0.000102179	1	4.50245e-06	1.12387e-08
2	0	0	0	0	12.2355	0.0866973	0.0865195	2.89696e-06	1	4.52995e-06	2.50644e-10
2	0	0	0	0	12.7055	0.0631964	0.0630155	-0.000222352	1	4.48377e-06	-1.40116e-08
2	0	0	0	0	13.1755	0.0396955	0.039485	-0.000544202	1	4.30141e-06	-2.14878e-08
2	0	0	0	0	13.6455	0.0161945	0.0159513	-0.000662204	1	4.00427e-06	-1.0563e-08
2	0	0	0	0	14.1155	-0.00730644	-0.00753365	-0.000555735	1	3.71351e-06	4.18671e-09
2	0	0	0	0	14.5855	-0.0308074	-0.0310292	-0.000438517	1	3.48056e-06	1.36068e-08
2	0	0	0	0	15.0555	-0.0543084	-0.0546085	-0.000362441	1	3.29245e-06	1.97924e-08
2	0	0	0	0	15.5255	-0.0778093	-0.0780818	-0.000317478	1	3.13235e-06	2.47892e-08
2	0	0	1	0	15.9957	-0.10131	-0.101523	-0.000285819	1	2.99014e-06	2.90172e-08
2	0	0	1	0	16.4657	-0.124811	-0.125019	-0.0002629	1	2.86023e-06	3.28674e-08
2	0	0	1	0	16.9357	-0.148312	-0.148488	-0.000248382	1	2.73893e-06	3.68817e-08
2	0	0	1	0	17.4057	-0.171813	-0.172063	-0.000238084	1	2.62347e-06	4.09654e-08
2	0	0	1	0	17.8757	-0.195314	-0.195588	-0.000234288	1	2.51133e-06	4.58239e-08
2	1	0	0	1	18.3351	-0.181714	-0.181888	-8.1482e-05	1	2.45161e-06	1.48206e-08
2	1	0	0	1	18.8051	-0.158213	-0.158402	-5.20344e-05	1	2.42167e-06	8.24236e-09
2	1	0	0	1	19.2751	-0.134712	-0.13492	-3.45542e-05	1	2.40262e-06	4.66206e-09
2	1	0	0	1	19.7451	-0.111211	-0.111431	-2.19121e-05	1	2.39101e-06	2.44169e-09
2	1	0	1	1	20.2153	-0.0877097	-0.0878869	-9.87408e-06	2	2.38516e-06	8.67802e-10
2	1	0	1	1	20.6853	-0.0642088	-0.0644009	1.29022e-07	2	2.38401e-06	-8.30915e-12
2	1	0	1	1	21.1553	-0.0407078	-0.0409605	9.98021e-06	2	2.38727e-06	-4.08794e-10
2	1	0	1	1	21.6253	-0.0172068	-0.0173896	2.38199e-05	2	2.39628e-06	-4.1422e-10
2	1	0	1	1	22.0953	0.00629411	0.00612393	6.70931e-05	2	2.4177e-06	4.10874e-10
2	1	0	1	1	22.5653	0.0297951	0.0295718	0.000191622	2	2.4751e-06	5.66661e-09
2	1	0	1	1	23.0353	0.053296	0.0531277	0.000460551	2	2.62469e-06	2.4468e-08
2	1	0	1	1	23.5053	0.0767969	0.0766211	0.000740729	2	2.91412e-06	5.67555e-08
2	1	0	1	1	23.9753	0.100298	0.100112	0.000797348	2	3.28614e-06	7.98244e-08
2	1	0	1	1	24.4453	0.123799	0.123649	0.000709383	2	3.64399e-06	8.77147e-08
2	1	0	1	1	24.9154	0.147299	0.14709	0.000616598	2	3.9565e-06	9.06951e-08
2	1	0	0	1	25.3855	0.170801	0.170645	0.000550552	2	4.23131e-06	9.39487e-08
2	1	0	0	1	25.8555	0.194302	0.194074	0.000505709	2	4.48031e-06	9.81451e-08
2	1	0	0	1	26.3255	0.217803	0.217665	0.000476772	2	4.71244e-06	1.03777e-07
2	1	0	0	1	26.7955	0.241304	0.241141	0.000460607	2	4.93409e-06	1.11071e-07
2	1	0	0	1	27.2655	0.264805	0.264635	0.000454799	2	5.15049e-06	1.20356e-07
2	1	0	0	1	27.7355	0.288305	0.288187	0.000461225	2	5.36662e-06	1.32919e-07
2	0	0	0	1	28.1951	0.288705	0.288508	0.000310759	2	5.55194e-06	8.96564e-08
2	0	0	0	1	28.6651	0.265205	0.265013	0.000255066	2	5.68258e-06	6.75957e-08
2	0	0	0	1	29.1351	0.241704	0.241518	0.000224968	2	5.7938e-06	5.43339e-08
2	0	0	0	1	29.6051	0.218203	0.217964	0.000201657	2	5.89276e-06	4.39541e-08
2	0	0	0	1	30.0751	0.194702	0.19449	0.000183477	2	5.98218e-06	3.56845e-08
2	0	0	0	1	30.5451	0.171201	0.171023	0.000164278	2	6.06297e-06	2.80954e-08
2	0	0	0	1	31.0151	0.1477	0.147505	0.000143308	2	6.13466e-06	2.11387e-08
2	0	0	1	1	31.4853	0.124199	0.123961	0.000114708	2	6.19476e-06	1.42193e-08
2	0	0	1	1	31.9553	0.100698	0.100488	5.5933e-05	2	6.23532e-06	5.62058e-09
2	0	0	1	1	32.4253	0.077197	0.0769614	-8.11641e-05	2	6.23336e-06	-6.2465e-09
2	0	0	1	1	32.8953	0.053696	0.0535051	-0.000355568	2	6.13552e-06	-1.90247e-08
2	0	0	1	1	33.3653	0.0301951	0.029982	-0.000638577	2	5.89362e-06	-1.91458e-08
2	0	0	1	1	33.8353	0.00669413	0.00645575	-0.000653515	2	5.57779e-06	-4.21893e-09
2	0	0	1	1	34.3053	-0.0168068	-0.0170589	-0.000527257	2	5.29804e-06	8.99441e-09
2	0	0	1	1	34.7753	-0.0403078	-0.0404632	-0.000428409	2	5.07421e-06	1.73348e-08
2	0	0	1	1	35.2453	-0.0638087	-0.0640298	-0.000363999	2	4.88846e-06	2.33068e-08
2	0	0	1	1	35.7153	-0.0873097	-0.0874883	-0.000321917	2	4.72667e-06	2.81639e-08
2	0	0	0	1	36.1855	-0.110811	-0.11106	-0.000296007	2	4.58082e-06	3.28746e-08
2	0	0	0	1	36.6555	-0.134312	-0.134578	-0.000274514	2	4.44633e-06	3.69435e-08
2	0	0	0	1	37.1255	-0.157813	-0.157998	-0.000259328	2	4.31994e-06	4.09734e-08
2	0	0	0	1	37.5955	-0.181314	-0.18156	-0.000250954	2	4.19897e-06	4.5563e-08
2	1	0	1	0	38.0549	-0.195714	-0.195946	-0.000130916	2	4.09291e-06	2.56526e-08
2	1	0	1	0	38.5249	-0.172213	-0.172402	-8.05811e-05	2	4.04671e-06	1.38924e-08
2	1	0	1	0	38.9949	-0.148712	-0.148889	-5.73e-05	2	4.0159e-06	8.53132e-09
2	1	0	1	0	39.4649	-0.125211	-0.12543	-4.03356e-05	2	3.99439e-06	5.0593e-09
2	1	0	1	0	39.9349	-0.10171	-0.101948	-2.85202e-05	2	3.9798e-06	2.90758e-09
2	1	0	0	0	40.4051	-0.0782093	-0.0783807	-1.84323e-05	3	3.9707e-06	1.44473e-09
2	1	0	0	0	40.8751	-0.0547084	-0.0548714	-7.37993e-06	3	3.9663e-06	4.04947e-10
2	1	0	0	0	41.3451	-0.0312074	-0.031431	5.47237e-06	3	3.96678e-06	-1.72002e-10
2	1	0	0	0	41.8151	-0.00770646	-0.00790788	2.79604e-05	3	3.97486e-06	-2.21107e-10
2	1	0	0	0	42.2851	0.0157945	0.0156078	9.39193e-05	3	4.00203e-06	1.46587e-09
2	1	0	0	0	42.7551	0.0392954	0.0391489	0.000268996	3	4.08295e-06	1.05309e-08
2	1	0	0	0	43.2251	0.0627964	0.0626275	0.000566573	3	4.27889e-06	3.54831e-08
2	1	0	0	0	43.6951	0.0862973	0.0861093	0.000771618	3	4.60365e-06	6.64435e-08
2	1	0	0	0	44.1651	0.109798	0.109639	0.000754931	3	4.97031e-06	8.27697e-08
2	1	0	0	0	44.6351	0.133299	0.133116	0.000656322	3	5.30394e-06	8.73671e-08
2	1	0	1	0	45.1053	0.1568	0.156633	0.000572687	3	5.59344e-06	8.97016e-08
2	1	0	1	0	45.5753	0.180301	0.180127	0.000514383	3	5.84952e-06	9.26546e-08
2	1	0	1	0	46.0453	0.203802	0.203581	0.000476724	3	6.08296e-06	9.70517e-08
2	1	0	1	0	46.5153	0.227303	0.227162	0.000449836	3	6.30137e-06	1.02186e-07
2	1	0	1	0	46.9853	0.250804	0.250645	0.000432578	3	6.51009e-06	1.08423e-07
2	1	0	1	0	47.4553	0.274305	0.274124	0.000428957	3	6.71387e-06	1.17588e-07
2	1	0	1	0	47.9253	0.297806	0.297615	0.000434477	3	6.91764e-06	1.29307e-07
2	0	0	1	0	48.3849	0.279205	0.278996	0.000263689	3	7.0596e-06	7.35682e-08
2	0	0	1	0	48.8549	0.255704	0.2555	0.000227611	3	7.17359e-06	5.81546e-08
2	0	0	1	0	49.3249	0.232203	0.231995	0.000203208	3	7.27355e-06	4.71433e-08
2	0	0	1	0	49.7949	0.208702	0.20851	0.000183898	3	7.36349e-06	3.83446e-08
2	0	0	1	0	50.2649	0.185201	0.184987	0.000166536	3	7.445e-06	3.0807e-08
2	0	0	1	0	50.7349	0.1617	0.161531	0.000148741	3	7.51823e-06	2.40263e-08
2	0	0	0	0	51.2051	0.138199	0.137919	0.000126289	3	7.58199e-06	1.74175e-08
2	0	0	0	0	51.6751	0.114698	0.114467	9.09094e-05	3	7.6323e-06	1.04061e-08
2	0	0	0	0	52.1451	0.0911975	0.0910505	1.03264e-05	3	7.65712e-06	9.40226e-10
2	0	0	0	0	52.6151	0.0676966	0.0674924	-0.000174197	3	7.62331e-06	-1.17569e-08
2	0	0	0	0	53.0851	0.0441956	0.0439895	-0.000484814	3	7.46985e-06	-2.13267e-08
2	0	0	0	0	53.5551	0.0206947	0.0204801	-0.000681846	3	7.18342e-06	-1.39643e-08
2	0	0	0	0	54.0251	-0.00280626	-0.00306205	-0.000612387	3	6.87128e-06	1.87516e-09
2	0	0	0	0	54.4951	-0.0263072	-0.02653	-0.000490408	3	6.61172e-06	1.30105e-08
2	0	0	0	0	54.9651	-0.0498082	-0.0500288	-0.000406494	3	6.40165e-06	2.03364e-08
2	0	0	0	0	55.4351	-0.0733091	-0.073519	-0.000352974	3	6.22314e-06	2.59503e-08
2	0	0	0	0	55.9051	-0.0968101	-0.0970315	-0.000317091	3	6.065e-06	3.07678e-08
2	0	0	1	0	56.3753	-0.120311	-0.120562	-0.000291621	3	5.92085e-06	3.51585e-08
2	0	0	1	0	56.8453	-0.143812	-0.144027	-0.000274595	3	5.78691e-06	3.95491e-08
2	0	0	1	0	57.3153	-0.167313	-0.167557	-0.000263553	3	5.66027e-06	4.41603e-08
2	0	0	1	0	57.7853	-0.190814	-0.191071	-0.00025358	3	5.53831e-06	4.84518e-08
2	1	0	0	1	58.2447	-0.186214	-0.18645	-0.0001073	3	5.4569e-06	2.0006e-08
2	1	0	0	1	58.7147	-0.162713	-0.16291	-7.46831e-05	3	5.41624e-06	1.21666e-08
2	1	0	0	1	59.1847	-0.139212	-0.139355	-5.45144e-05	3	5.38753e-06	7.59685e-09
2	1	0	0	1	59.6547	-0.115711	-0.115887	-3.97332e-05	3	5.36698e-06	4.60456e-09
2	1	0	1	1	60.1249	-0.0922099	-0.0924083	-2.77376e-05	3	5.35277e-06	2.56319e-09
2	1	0	1	1	60.5949	-0.0687089	-0.0689329	-1.65811e-05	3	5.34373e-06	1.14298e-09
2	1	0	0	1	60.971	-0.0498832	-0.0503659	-1.32825e-06	3	5.33985e-06	6.68987e-11