File: AutoAnalysis Examples/EC/C000A-20ppb-B_C01.mpt
EC-Lab ASCII FILE
Nb header lines : 59

Cyclic Voltammetry

Run on channel : 1 (SN 22398)
User :
CE vs. WE compliance from -10 V to 10 V
Electrode connection : standard
Ewe ctrl range : min = -1.00 V, max = 1.00 V
Safety Limits :
	Ewe min = -2.00 V
	Ewe max = 2.00 V
	|I| = 50.000 mA
	for t > 10 ms
Acquisition started on : 11/21/2018 11:45:13
Technique started on : 11/21/2018 11:45:13
Saved on :
	File : C000A-20ppb-B_C01.mpr
	Directory : \\ECCOMPUTER\Users\Lab User\Google Drive\Electrochemical Data\EC-Lab\Data\FREDsense\Tim\2018.11.21 - EC comparison to High Throughput\
	Host : 172.16.1.30
Device : SP-50 (SN 0301030103010301)
Address : USB
EC-Lab for windows v11.02 (software)
Internet server v11.02 (firmware)
Command interpretor v11.02 (firmware)
Electrode material : Au/Pd
Initial state :
Electrolyte : NaCl (0.2M)
Comments : Fe(CN)63-/Fe(CN)64- 5.10-3 M
Reference electrode : SCE Saturated Calomel Electrode (0.241 V)
Electrode surface area : 0.001 cm²
Characteristic mass : 0.001 g
Equivalent Weight : 0.000 g/eq.
Density : 0.000 g/cm3
Cycle Definition : Charge/Discharge alternance
Ei (V)              -0.100
vs.                 Ref
dE/dt               50.000
dE/dt unit          mV/s
E1 (V)              0.300
vs.                 Ref
Step percent        50
N                   10
E range min (V)     -1.000
E range max (V)     1.000
I Range             Auto
I Range min         Unset
I Range max         Unset
I Range init        Unset
Bandwidth           5
E2 (V)              -0.200
vs.                 Ref
nc cycles           2
Reverse Scan        1
Ef (V)              0.000
vs.                 Eoc

mode	ox/red	error	control changes	counter inc.	time/s	control/V	Ewe/V	<I>/mA	cycle number	(Q-Qo)/C	P/W
2	1	0	1	0	0.000000000000000E+000	-0.0984851	-0.0987932	-7.8141e-05	1	0.0000000E+000	7.71981e-09
2	1	0	1	0	0.4865	-0.0741592	-0.0742736	5.60761e-05	1	2.06179e-08	-4.16497e-09
2	1	0	1	0	0.9465	-0.0511582	-0.0512763	6.72167e-05	1	5.0762e-08	-3.44663e-09
2	1	0	1	0	1.4065	-0.0281573	-0.0283268	8.11925e-05	1	8.58688e-08	-2.29992e-09
2	1	0	1	0	1.8665	-0.00515635	-0.00533053	0.000103249	1	1.28825e-07	-5.50374e-10
2	1	0	1	0	2.3265	0.0178446	0.0176848	0.000185853	1	1.93495e-07	3.28677e-09
2	1	0	1	0	2.7865	0.0408455	0.0407361	0.000423347	1	3.27029e-07	1.72455e-08
2	1	0	1	0	3.2465	0.0638464	0.0637291	0.000786059	1	6.08385e-07	5.00948e-08
2	1	0	1	0	3.7065	0.0868473	0.0867169	0.000916283	1	1.01461e-06	7.94572e-08
2	1	0	1	0	4.1665	0.109848	0.10975	0.000815679	1	1.41752e-06	8.9521e-08
2	1	0	1	0	4.6265	0.132849	0.13274	0.000712197	1	1.76908e-06	9.4537e-08
2	1	0	0	0	5.0867	0.15585	0.155743	0.000645803	1	2.08109e-06	1.00579e-07
2	1	0	0	0	5.5467	0.178851	0.178757	0.000604312	1	2.36874e-06	1.08025e-07
2	1	0	0	0	6.0067	0.201852	0.201713	0.000580703	1	2.64209e-06	1.17135e-07
2	1	0	0	0	6.4667	0.224853	0.224781	0.000570908	1	2.9078e-06	1.28329e-07
2	1	0	0	0	6.9267	0.247854	0.247747	0.000567031	1	3.17034e-06	1.4048e-07
2	1	0	0	0	7.3867	0.270855	0.270743	0.00057133	1	3.43324e-06	1.54684e-07
2	1	0	0	0	7.8467	0.293856	0.293743	0.000581302	1	3.69932e-06	1.70753e-07
2	0	0	1	0	8.2953	0.283705	0.283486	0.000350578	1	3.90123e-06	9.93839e-08
2	0	0	1	0	8.7553	0.260704	0.260514	0.000281451	1	4.04501e-06	7.33217e-08
2	0	0	1	0	9.2153	0.237703	0.237512	0.00024174	1	4.1633e-06	5.74162e-08
2	0	0	1	0	9.6753	0.214702	0.214537	0.000217385	1	4.26724e-06	4.66372e-08
2	0	0	1	0	10.1353	0.191702	0.191537	0.000193689	1	4.36042e-06	3.70985e-08
2	0	0	1	0	10.5953	0.168701	0.168542	0.000174571	1	4.44429e-06	2.94225e-08
2	0	0	0	0	11.0555	0.1457	0.145523	0.000154531	1	4.51923e-06	2.24879e-08
2	0	0	0	0	11.5155	0.122699	0.122546	0.000124603	1	4.58294e-06	1.52696e-08
2	0	0	0	0	11.9755	0.0996979	0.0995285	6.329e-05	1	4.62712e-06	6.29916e-09
2	0	0	0	0	12.4355	0.0766969	0.0765874	-9.89499e-05	1	4.62375e-06	-7.57831e-09
2	0	0	0	0	12.8955	0.053696	0.0535127	-0.000430082	1	4.50638e-06	-2.30149e-08
2	0	0	0	0	13.3555	0.0306951	0.0305282	-0.00069744	1	4.23347e-06	-2.12916e-08
2	0	0	0	0	13.8155	0.00769417	0.00757013	-0.000637492	1	3.91653e-06	-4.8259e-09
2	0	0	0	0	14.2755	-0.0153068	-0.0154823	-0.000494554	1	3.6572e-06	7.65682e-09
2	0	0	0	0	14.7355	-0.0383077	-0.0384584	-0.000400117	1	3.45263e-06	1.53878e-08
2	0	0	0	0	15.1955	-0.0613086	-0.0615076	-0.000344142	1	3.28137e-06	2.11673e-08
2	0	0	0	0	15.6555	-0.0843096	-0.0844975	-0.000308563	1	3.13077e-06	2.60728e-08
2	0	0	1	0	16.1157	-0.107311	-0.107481	-0.000284621	1	2.99392e-06	3.05914e-08
2	0	0	1	0	16.5757	-0.130311	-0.130444	-0.000266182	1	2.86684e-06	3.47219e-08
2	0	0	1	0	17.0357	-0.153312	-0.153418	-0.000253252	1	2.74676e-06	3.88534e-08
2	0	0	1	0	17.4957	-0.176313	-0.17645	-0.00024599	1	2.63115e-06	4.34048e-08
2	0	0	1	0	17.9557	-0.199314	-0.199443	-0.000243847	1	2.51765e-06	4.86335e-08
2	1	0	0	1	18.4051	-0.178213	-0.178284	-6.53071e-05	1	2.47578e-06	1.16432e-08
2	1	0	0	1	18.8651	-0.155212	-0.155268	-3.79386e-05	1	2.45366e-06	5.89066e-09
2	1	0	0	1	19.3251	-0.132212	-0.132336	-2.02958e-05	1	2.4417e-06	2.68586e-09
2	1	0	0	1	19.7851	-0.109211	-0.109335	-6.53559e-06	1	2.43688e-06	7.1457e-10
2	1	0	1	1	20.2453	-0.0862097	-0.0863484	3.12836e-06	2	2.43758e-06	-2.70129e-10
2	1	0	1	1	20.7053	-0.0632087	-0.0633331	1.40518e-05	2	2.44292e-06	-8.89942e-10
2	1	0	1	1	21.1653	-0.0402078	-0.0403687	2.15943e-05	2	2.45244e-06	-8.71733e-10
2	1	0	1	1	21.6253	-0.0172068	-0.0173969	3.76649e-05	2	2.46729e-06	-6.55252e-10
2	1	0	1	1	22.0853	0.00579409	0.00568841	8.06166e-05	2	2.494e-06	4.5858e-10
2	1	0	1	1	22.5453	0.028795	0.0286274	0.000213935	2	2.55743e-06	6.12441e-09
2	1	0	1	1	23.0053	0.0517959	0.051736	0.00051657	2	2.72032e-06	2.67253e-08
2	1	0	1	1	23.4653	0.0747969	0.0746368	0.000802075	2	3.03272e-06	5.98643e-08
2	1	0	1	1	23.9253	0.0977978	0.0976743	0.000815685	2	3.41606e-06	7.96715e-08
2	1	0	1	1	24.3853	0.120799	0.120668	0.000700537	2	3.76696e-06	8.45327e-08
2	1	0	1	1	24.8453	0.1438	0.143699	0.000606174	2	4.06747e-06	8.71064e-08
2	1	0	0	1	25.3055	0.166801	0.166683	0.000544696	2	4.33205e-06	9.07917e-08
2	1	0	0	1	25.7655	0.189801	0.189665	0.00050322	2	4.5732e-06	9.54429e-08
2	1	0	0	1	26.2255	0.212802	0.212676	0.000478017	2	4.79945e-06	1.01663e-07
2	1	0	0	1	26.6855	0.235803	0.235627	0.000463723	2	5.01661e-06	1.09266e-07
2	1	0	0	1	27.1455	0.258804	0.258632	0.000457293	2	5.2293e-06	1.18271e-07
2	1	0	0	1	27.6055	0.281805	0.28168	0.000463923	2	5.44219e-06	1.30678e-07
2	0	0	0	1	28.0551	0.295706	0.295539	0.000334916	2	5.64411e-06	9.89807e-08
2	0	0	0	1	28.5151	0.272705	0.272522	0.000253137	2	5.77552e-06	6.89853e-08
2	0	0	0	1	28.9751	0.249704	0.249505	0.000219346	2	5.88267e-06	5.4728e-08
2	0	0	0	1	29.4351	0.226703	0.226476	0.000195151	2	5.97626e-06	4.41972e-08
2	0	0	0	1	29.8951	0.203702	0.203562	0.00017204	2	6.0602e-06	3.50207e-08
2	0	0	0	1	30.3551	0.180701	0.180517	0.000158751	2	6.13601e-06	2.86573e-08
2	0	0	0	1	30.8151	0.1577	0.157524	0.000140052	2	6.20406e-06	2.20615e-08
2	0	0	1	1	31.2753	0.134699	0.134533	0.000118416	2	6.2634e-06	1.59308e-08
2	0	0	1	1	31.7353	0.111698	0.111515	8.28811e-05	2	6.30978e-06	9.24252e-09
2	0	0	1	1	32.1953	0.0886974	0.0885265	-1.36612e-05	2	6.32849e-06	-1.20938e-09
2	0	0	1	1	32.6553	0.0656965	0.0655929	-0.000241475	2	6.27628e-06	-1.5839e-08
2	0	0	1	1	33.1153	0.0426956	0.0425065	-0.000596109	2	6.08175e-06	-2.53385e-08
2	0	0	1	1	33.5753	0.0196946	0.0195358	-0.000723012	2	5.76313e-06	-1.41246e-08
2	0	0	1	1	34.0353	-0.00330628	-0.00345729	-0.000594394	2	5.45577e-06	2.05499e-09
2	0	0	1	1	34.4953	-0.0263072	-0.0264641	-0.00047297	2	5.21128e-06	1.25167e-08
2	0	0	1	1	34.9553	-0.0493081	-0.049489	-0.000397202	2	5.0121e-06	1.96571e-08
2	0	0	1	1	35.4153	-0.0723091	-0.0725393	-0.000348556	2	4.84038e-06	2.5284e-08
2	0	0	1	1	35.8753	-0.09531	-0.0954888	-0.000319859	2	4.68658e-06	3.0543e-08
2	0	0	0	1	36.3355	-0.118311	-0.11847	-0.000295246	2	4.54522e-06	3.49779e-08
2	0	0	0	1	36.7955	-0.141312	-0.141443	-0.000277137	2	4.41299e-06	3.91991e-08
2	0	0	0	1	37.2555	-0.164313	-0.164465	-0.000266242	2	4.28719e-06	4.37874e-08
2	0	0	0	1	37.7155	-0.187314	-0.187503	-0.000259295	2	4.16542e-06	4.86186e-08
2	1	0	1	0	38.1649	-0.190214	-0.190321	-0.000104007	2	4.07573e-06	1.97948e-08
2	1	0	1	0	38.6249	-0.167213	-0.167363	-6.39753e-05	2	4.0397e-06	1.07071e-08
2	1	0	1	0	39.0849	-0.144212	-0.144346	-4.12188e-05	2	4.01689e-06	5.94976e-09
2	1	0	1	0	39.5449	-0.121211	-0.121337	-2.59147e-05	2	4.00268e-06	3.14441e-09
2	1	0	0	0	40.0051	-0.0982101	-0.0983459	-1.64539e-05	3	3.995e-06	1.61817e-09
2	1	0	0	0	40.4651	-0.0752092	-0.0753497	-1.01737e-06	3	3.99259e-06	7.66584e-11
2	1	0	0	0	40.9251	-0.0522083	-0.0523227	8.7455e-06	3	3.99459e-06	-4.57588e-10
2	1	0	0	0	41.3851	-0.0292073	-0.0293561	1.73673e-05	3	4.00119e-06	-5.09836e-10
2	1	0	0	0	41.8451	-0.0062064	-0.00632068	4.22699e-05	3	4.01525e-06	-2.67175e-10
2	1	0	0	0	42.3051	0.0167945	0.0166999	0.000115091	3	4.0496e-06	1.92202e-09
2	1	0	0	0	42.7651	0.0397955	0.0396972	0.000323001	3	4.14453e-06	1.28223e-08
2	1	0	0	0	43.2251	0.0627964	0.0626902	0.000649975	3	4.36873e-06	4.07471e-08
2	1	0	0	0	43.6851	0.0857973	0.0856589	0.000822563	3	4.72041e-06	7.04598e-08
2	1	0	0	0	44.1451	0.108798	0.108665	0.000755191	3	5.08957e-06	8.20625e-08
2	1	0	0	0	44.6051	0.131799	0.131674	0.000642779	3	5.41132e-06	8.4637e-08
2	1	0	1	0	45.0653	0.1548	0.15467	0.000561341	3	5.68825e-06	8.68225e-08
2	1	0	1	0	45.5253	0.177801	0.177684	0.000507226	3	5.93459e-06	9.01259e-08
2	1	0	1	0	45.9853	0.200802	0.200641	0.000471456	3	6.16087e-06	9.45935e-08
2	1	0	1	0	46.4453	0.223803	0.223625	0.000449993	3	6.374e-06	1.00629e-07
2	1	0	1	0	46.9053	0.246804	0.246626	0.000435297	3	6.57873e-06	1.07355e-07
2	1	0	1	0	47.3653	0.269805	0.269671	0.000430556	3	6.77923e-06	1.16108e-07
2	1	0	1	0	47.8253	0.292806	0.292609	0.000437685	3	6.98014e-06	1.2807e-07
2	0	0	1	0	48.2749	0.284705	0.284505	0.000264437	3	7.13349e-06	7.52336e-08
2	0	0	1	0	48.7349	0.261704	0.261532	0.000221151	3	7.24326e-06	5.78382e-08
2	0	0	1	0	49.1949	0.238703	0.238511	0.000196331	3	7.33756e-06	4.68272e-08
2	0	0	1	0	49.6549	0.215703	0.215542	0.000174725	3	7.42167e-06	3.76606e-08
2	0	0	1	0	50.1149	0.192702	0.192571	0.000158483	3	7.49763e-06	3.05193e-08
2	0	0	1	0	50.5749	0.169701	0.16952	0.000142884	3	7.56612e-06	2.42217e-08
2	0	0	0	0	51.0351	0.1467	0.146526	0.000125105	3	7.62688e-06	1.83311e-08
2	0	0	0	0	51.4951	0.123699	0.123463	0.000100088	3	7.67777e-06	1.23571e-08
2	0	0	0	0	51.9551	0.100698	0.100513	4.17647e-05	3	7.71105e-06	4.19791e-09
2	0	0	0	0	52.4151	0.077697	0.0775458	-9.92643e-05	3	7.70203e-06	-7.69753e-09
2	0	0	0	0	52.8751	0.0546961	0.0545389	-0.000406276	3	7.59083e-06	-2.21579e-08
2	0	0	0	0	53.3351	0.0316951	0.0315427	-0.000702471	3	7.32644e-06	-2.21578e-08
2	0	0	0	0	53.7951	0.00869421	0.008573	-0.000682512	3	6.99618e-06	-5.85118e-09
2	0	0	0	0	54.2551	-0.0143067	-0.0145271	-0.000542352	3	6.71375e-06	7.87881e-09
2	0	0	0	0	54.7151	-0.0373077	-0.0374343	-0.00044309	3	6.48829e-06	1.65868e-08
2	0	0	0	0	55.1751	-0.0603086	-0.0605185	-0.000383197	3	6.29903e-06	2.31905e-08
2	0	0	0	0	55.6351	-0.0833095	-0.0835338	-0.000343386	3	6.13237e-06	2.86843e-08
2	0	0	1	0	56.0953	-0.10631	-0.10646	-0.00031138	3	5.98107e-06	3.31496e-08
2	0	0	1	0	56.5553	-0.129311	-0.129456	-0.000293614	3	5.84087e-06	3.80102e-08
2	0	0	1	0	57.0153	-0.152312	-0.152457	-0.000278181	3	5.70867e-06	4.24105e-08
2	0	0	1	0	57.4753	-0.175313	-0.175446	-0.000269633	3	5.58214e-06	4.7306e-08
2	0	0	1	0	57.9353	-0.198314	-0.198477	-0.000265733	3	5.45861e-06	5.27418e-08
2	1	0	0	1	58.3847	-0.179213	-0.179298	-8.62407e-05	3	5.40513e-06	1.54628e-08
2	1	0	0	1	58.8447	-0.156213	-0.156406	-5.64063e-05	3	5.37415e-06	8.82226e-09
2	1	0	0	1	59.3047	-0.133212	-0.133308	-4.08991e-05	3	5.35363e-06	5.45216e-09
2	1	0	0	1	59.7647	-0.110211	-0.110345	-2.54466e-05	3	5.34061e-06	2.80792e-09
2	1	0	1	1	60.2249	-0.0872097	-0.0873598	-1.46946e-05	3	5.33352e-06	1.28372e-09
2	1	0	0	1	60.4874	-0.0740841	-0.0743107	-6.32009e-06	3	5.33167e-06	4.6965e-10