File: AutoAnalysis Examples/EC/C000A-0ppb-A_C01.mpt
EC-Lab ASCII FILE
Nb header lines : 59

Cyclic Voltammetry

Run on channel : 1 (SN 22398)
User :
CE vs. WE compliance from -10 V to 10 V
Electrode connection : standard
Ewe ctrl range : min = -1.00 V, max = 1.00 V
Safety Limits :
	Ewe min = -2.00 V
	Ewe max = 2.00 V
	|I| = 50.000 mA
	for t > 10 ms
Acquisition started on : 11/21/2018 10:36:13
Technique started on : 11/21/2018 10:36:13
Saved on :
	File : C000A-0ppb-A_C01.mpr
	Directory : \\ECCOMPUTER\Users\Lab User\Google Drive\Electrochemical Data\EC-Lab\Data\FREDsense\Tim\2018.11.21 - EC comparison to High Throughput\
	Host : 172.16.1.30
Device : SP-50 (SN 0301030103010301)
Address : USB
EC-Lab for windows v11.02 (software)
Internet server v11.02 (firmware)
Command interpretor v11.02 (firmware)
Electrode material : Au/Pd
Initial state :
Electrolyte : NaCl (0.2M)
Comments : Fe(CN)63-/Fe(CN)64- 5.10-3 M
Reference electrode : SCE Saturated Calomel Electrode (0.241 V)
Electrode surface area : 0.001 cm²
Characteristic mass : 0.001 g
Equivalent Weight : 0.000 g/eq.
Density : 0.000 g/cm3
Cycle Definition : Charge/Discharge alternance
Ei (V)              -0.100
vs.                 Ref
dE/dt               50.000
dE/dt unit          mV/s
E1 (V)              0.300
vs.                 Ref
Step percent        50
N                   10
E range min (V)     -1.000
E range max (V)     1.000
I Range             Auto
I Range min         Unset
I Range max         Unset
I Range init        Unset
Bandwidth           5
E2 (V)              -0.200
vs.                 Ref
nc cycles           2
Reverse Scan        1
Ef (V)              0.000
vs.                 Eoc

mode	ox/red	error	control changes	counter inc.	time/s	control/V	Ewe/V	<I>/mA	cycle number	(Q-Qo)/C	P/W
2	1	0	1	0	0.000000000000000E+000	-0.0984789	-0.0986253	-7.8141e-05	1	0.0000000E+000	7.70668e-09
2	1	0	1	0	0.4865	-0.0741528	-0.074375	5.19498e-05	1	2.15563e-08	-3.86376e-09
2	1	0	1	0	0.9465	-0.0511517	-0.0513999	6.11721e-05	1	4.89143e-08	-3.14424e-09
2	1	0	1	0	1.4065	-0.0281507	-0.028409	7.19754e-05	1	8.04913e-08	-2.04475e-09
2	1	0	1	0	1.8665	-0.0051496	-0.00541597	9.3672e-05	1	1.18916e-07	-5.07325e-10
2	1	0	1	0	2.3265	0.0178514	0.0176237	0.000164757	1	1.7651e-07	2.90363e-09
2	1	0	1	0	2.7865	0.0408525	0.0406337	0.000369385	1	2.93569e-07	1.50095e-08
2	1	0	1	0	3.2465	0.0638535	0.0636925	0.000694197	1	5.39164e-07	4.42151e-08
2	1	0	1	0	3.7065	0.0868546	0.0866155	0.000855642	1	9.08518e-07	7.41119e-08
2	1	0	1	0	4.1665	0.109856	0.109705	0.000793961	1	1.29396e-06	8.71016e-08
2	1	0	0	0	4.6267	0.132857	0.132628	0.000696278	1	1.63752e-06	9.2346e-08
2	1	0	0	0	5.0867	0.155858	0.155696	0.000627844	1	1.94223e-06	9.77531e-08
2	1	0	0	0	5.5467	0.178859	0.178734	0.000584704	1	2.22174e-06	1.04506e-07
2	1	0	0	0	6.0067	0.20186	0.201676	0.000560333	1	2.48592e-06	1.13006e-07
2	1	0	0	0	6.4667	0.224861	0.224719	0.000548408	1	2.74162e-06	1.23238e-07
2	1	0	0	0	6.9267	0.247862	0.247667	0.0005439	1	2.99366e-06	1.34706e-07
2	1	0	0	0	7.3867	0.270863	0.270703	0.000547607	1	3.24565e-06	1.48239e-07
2	1	0	0	0	7.8467	0.293864	0.293716	0.000556228	1	3.50051e-06	1.63373e-07
2	0	0	1	0	8.2953	0.283714	0.283566	0.000332146	1	3.6934e-06	9.41853e-08
2	0	0	1	0	8.7553	0.260713	0.260472	0.000266247	1	3.82968e-06	6.93499e-08
2	0	0	1	0	9.2153	0.237711	0.237467	0.000227856	1	3.94205e-06	5.41084e-08
2	0	0	1	0	9.6753	0.21471	0.214487	0.000203468	1	4.04043e-06	4.36412e-08
2	0	0	1	0	10.1353	0.191709	0.191496	0.000182467	1	4.12836e-06	3.49417e-08
2	0	0	1	0	10.5953	0.168708	0.168519	0.000163409	1	4.20732e-06	2.75376e-08
2	0	0	1	0	11.0553	0.145707	0.14547	0.000144202	1	4.27686e-06	2.0977e-08
2	0	0	1	0	11.5153	0.122706	0.122426	0.000112124	1	4.33495e-06	1.37269e-08
2	0	0	0	0	11.9755	0.0997052	0.0994243	5.27076e-05	1	4.37364e-06	5.24041e-09
2	0	0	0	0	12.4355	0.0767041	0.0765139	-9.06284e-05	1	4.36864e-06	-6.93434e-09
2	0	0	0	0	12.8955	0.0537031	0.0535135	-0.00038027	1	4.26454e-06	-2.03496e-08
2	0	0	0	0	13.3555	0.030702	0.0305342	-0.00063367	1	4.02143e-06	-1.93486e-08
2	0	0	0	0	13.8155	0.00770099	0.00746382	-0.000608599	1	3.72513e-06	-4.54248e-09
2	0	0	0	0	14.2755	-0.0153001	-0.0155557	-0.000480076	1	3.47406e-06	7.46793e-09
2	0	0	0	0	14.7355	-0.0383011	-0.0384947	-0.000388586	1	3.27475e-06	1.49585e-08
2	0	0	0	0	15.1955	-0.0613022	-0.0615651	-0.000332948	1	3.10852e-06	2.0498e-08
2	0	0	0	0	15.6555	-0.0843032	-0.084537	-0.000298713	1	2.96284e-06	2.52523e-08
2	0	0	1	0	16.1157	-0.107304	-0.107463	-0.000273207	1	2.83082e-06	2.93597e-08
2	0	0	1	0	16.5757	-0.130305	-0.130556	-0.000256767	1	2.70837e-06	3.35224e-08
2	0	0	1	0	17.0357	-0.153306	-0.153607	-0.0002438	1	2.59268e-06	3.74494e-08
2	0	0	1	0	17.4957	-0.176307	-0.176548	-0.000237778	1	2.48129e-06	4.19793e-08
2	0	0	1	0	17.9557	-0.199309	-0.199571	-0.000235305	1	2.37201e-06	4.69601e-08
2	1	0	0	1	18.4051	-0.178208	-0.178409	-6.30108e-05	1	2.33173e-06	1.12417e-08
2	1	0	0	1	18.8651	-0.155206	-0.155454	-3.69688e-05	1	2.31037e-06	5.74695e-09
2	1	0	0	1	19.3251	-0.132205	-0.132421	-2.0831e-05	1	2.29858e-06	2.75846e-09
2	1	0	0	1	19.7851	-0.109204	-0.109392	-7.54773e-06	1	2.29345e-06	8.25659e-10
2	1	0	1	1	20.2353	-0.0867034	-0.0869244	1.99787e-06	2	2.29344e-06	-1.73664e-10
2	1	0	1	1	20.6953	-0.0637023	-0.0639313	9.1606e-06	2	2.29764e-06	-5.8565e-10
2	1	0	1	1	21.1553	-0.0407012	-0.040915	1.9948e-05	2	2.30583e-06	-8.16171e-10
2	1	0	1	1	21.6153	-0.0177002	-0.0179283	3.433e-05	2	2.31907e-06	-6.15478e-10
2	1	0	1	1	22.0753	0.00530088	0.00509445	7.1479e-05	2	2.3432e-06	3.64146e-10
2	1	0	1	1	22.5353	0.0283019	0.0280684	0.000187498	2	2.39949e-06	5.26276e-09
2	1	0	1	1	22.9953	0.051303	0.0511388	0.00044478	2	2.54081e-06	2.27455e-08
2	1	0	1	1	23.4553	0.074304	0.0741562	0.000721101	2	2.81546e-06	5.34742e-08
2	1	0	1	1	23.9153	0.0973051	0.0971472	0.000767858	2	3.16829e-06	7.45952e-08
2	1	0	0	1	24.3755	0.120306	0.120077	0.000675911	2	3.50389e-06	8.11611e-08
2	1	0	0	1	24.8355	0.143307	0.143119	0.000585995	2	3.79476e-06	8.38672e-08
2	1	0	0	1	25.2955	0.166308	0.166157	0.000523848	2	4.05056e-06	8.7041e-08
2	1	0	0	1	25.7555	0.189309	0.189125	0.00048433	2	4.28292e-06	9.15987e-08
2	1	0	0	1	26.2155	0.21231	0.212074	0.000457071	2	4.50015e-06	9.69329e-08
2	1	0	0	1	26.6755	0.235311	0.235112	0.000442972	2	4.70815e-06	1.04148e-07
2	1	0	0	1	27.1355	0.258312	0.258099	0.000436496	2	4.91161e-06	1.12659e-07
2	1	0	0	1	27.5955	0.281313	0.281137	0.000441815	2	5.11512e-06	1.2421e-07
2	0	0	0	1	28.0451	0.296214	0.296074	0.000322258	2	5.30961e-06	9.54122e-08
2	0	0	0	1	28.5051	0.273213	0.273048	0.000241751	2	5.43474e-06	6.60096e-08
2	0	0	0	1	28.9651	0.250212	0.249975	0.000202452	2	5.53567e-06	5.06079e-08
2	0	0	0	1	29.4251	0.227211	0.227024	0.000181012	2	5.6233e-06	4.1094e-08
2	0	0	0	1	29.8851	0.20421	0.203994	0.000164105	2	5.70145e-06	3.34765e-08
2	0	0	0	1	30.3451	0.181209	0.180978	0.000145466	2	5.7716e-06	2.63261e-08
2	0	0	0	1	30.8051	0.158208	0.157985	0.000130533	2	5.83408e-06	2.06222e-08
2	0	0	0	1	31.2651	0.135207	0.134986	0.000105298	2	5.88775e-06	1.42138e-08
2	0	0	1	1	31.7253	0.112206	0.112018	7.12741e-05	2	5.92861e-06	7.98395e-09
2	0	0	1	1	32.1853	0.0892047	0.0890086	-1.14232e-05	2	5.94375e-06	-1.01676e-09
2	0	0	1	1	32.6453	0.0662037	0.0659996	-0.000212686	2	5.89703e-06	-1.40372e-08
2	0	0	1	1	33.1053	0.0432026	0.0430077	-0.000524224	2	5.72744e-06	-2.25457e-08
2	0	0	1	1	33.5653	0.0202016	0.0199987	-0.000670884	2	5.43966e-06	-1.34168e-08
2	0	0	1	1	34.0253	-0.00279949	-0.00301021	-0.000572452	2	5.14807e-06	1.7232e-09
2	0	0	1	1	34.4853	-0.0258006	-0.0260351	-0.000457122	2	4.91115e-06	1.19012e-08
2	0	0	1	1	34.9453	-0.0488016	-0.0490663	-0.000383995	2	4.71798e-06	1.88412e-08
2	0	0	1	1	35.4053	-0.0718027	-0.0720477	-0.000336424	2	4.55198e-06	2.42386e-08
2	0	0	1	1	35.8653	-0.0948037	-0.0950195	-0.000306901	2	4.40355e-06	2.91615e-08
2	0	0	0	1	36.3255	-0.117805	-0.118069	-0.000283065	2	4.26725e-06	3.34211e-08
2	0	0	0	1	36.7855	-0.140806	-0.141031	-0.000267491	2	4.13984e-06	3.77245e-08
2	0	0	0	1	37.2455	-0.163807	-0.164039	-0.000257353	2	4.01862e-06	4.22159e-08
2	0	0	0	1	37.7055	-0.186808	-0.187012	-0.00024923	2	3.90121e-06	4.66089e-08
2	1	0	1	0	38.1549	-0.190708	-0.190893	-0.000100421	2	3.81317e-06	1.91697e-08
2	1	0	1	0	38.6149	-0.167707	-0.167919	-6.38551e-05	2	3.77806e-06	1.07225e-08
2	1	0	1	0	39.0749	-0.144706	-0.144905	-4.26284e-05	2	3.7557e-06	6.17705e-09
2	1	0	1	0	39.5349	-0.121705	-0.121898	-2.55844e-05	2	3.74149e-06	3.11869e-09
2	1	0	1	0	39.985	-0.0992018	-0.0994301	-1.49165e-05	3	3.73357e-06	1.48315e-09
2	1	0	0	0	40.4451	-0.0762029	-0.0764663	-3.8754e-06	3	3.73041e-06	2.96337e-10
2	1	0	0	0	40.9051	-0.0532018	-0.0533979	4.3931e-06	3	3.73144e-06	-2.34583e-10
2	1	0	0	0	41.3651	-0.0302008	-0.030389	1.27358e-05	3	3.73686e-06	-3.87028e-10
2	1	0	0	0	41.8251	-0.0071997	-0.00740548	3.75254e-05	3	3.74915e-06	-2.77894e-10
2	1	0	0	0	42.2851	0.0158014	0.0156236	9.90808e-05	3	3.77926e-06	1.548e-09
2	1	0	0	0	42.7451	0.0388024	0.0386527	0.0002699	3	3.86058e-06	1.04324e-08
2	1	0	0	0	43.2051	0.0618034	0.0616627	0.000562638	3	4.0523e-06	3.46938e-08
2	1	0	0	0	43.6651	0.0848045	0.0845921	0.000749342	3	4.36464e-06	6.33884e-08
2	1	0	0	0	44.1251	0.107806	0.107647	0.000717863	3	4.70919e-06	7.72756e-08
2	1	0	1	0	44.5853	0.130807	0.130645	0.00061755	3	5.01783e-06	8.06798e-08
2	1	0	1	0	45.0453	0.153808	0.153609	0.00054007	3	5.2846e-06	8.29599e-08
2	1	0	1	0	45.5053	0.176809	0.17664	0.000488288	3	5.52135e-06	8.6251e-08
2	1	0	1	0	45.9653	0.19981	0.199685	0.000451307	3	5.73799e-06	9.01191e-08
2	1	0	1	0	46.4253	0.222811	0.22259	0.00042822	3	5.9414e-06	9.53174e-08
2	1	0	1	0	46.8853	0.245812	0.245662	0.000416101	3	6.13642e-06	1.0222e-07
2	1	0	1	0	47.3453	0.268813	0.268647	0.000410187	3	6.32723e-06	1.10195e-07
2	1	0	1	0	47.8053	0.291814	0.291584	0.000417717	3	6.51841e-06	1.218e-07
2	0	0	1	0	48.2549	0.285714	0.285538	0.00025139	3	6.6672e-06	7.17813e-08
2	0	0	1	0	48.7149	0.262713	0.262489	0.000206675	3	6.77056e-06	5.42501e-08
2	0	0	1	0	49.1749	0.239712	0.239526	0.000180446	3	6.85841e-06	4.32216e-08
2	0	0	1	0	49.6349	0.21671	0.216485	0.000162009	3	6.93623e-06	3.50725e-08
2	0	0	1	0	50.0949	0.193709	0.193497	0.000144733	3	7.00604e-06	2.80054e-08
2	0	0	1	0	50.5549	0.170708	0.170487	0.000131106	3	7.06853e-06	2.23517e-08
2	0	0	1	0	51.0149	0.147707	0.147519	0.000110425	3	7.12333e-06	1.62897e-08
2	0	0	1	0	51.4749	0.124706	0.124417	8.48666e-05	3	7.16842e-06	1.05588e-08
2	0	0	0	0	51.9351	0.101705	0.101468	3.4897e-05	3	7.19698e-06	3.54094e-09
2	0	0	0	0	52.3951	0.0787042	0.0785685	-8.61736e-05	3	7.18834e-06	-6.77053e-09
2	0	0	0	0	52.8551	0.0557032	0.0555193	-0.000345514	3	7.09311e-06	-1.91827e-08
2	0	0	0	0	53.3151	0.0327021	0.0324753	-0.00062845	3	6.86237e-06	-2.04091e-08
2	0	0	0	0	53.7751	0.00970108	0.00949184	-0.000647949	3	6.55773e-06	-6.15023e-09
2	0	0	0	0	54.2351	-0.0133	-0.0135288	-0.000525759	3	6.28629e-06	7.11287e-09
2	0	0	0	0	54.6951	-0.036301	-0.0365536	-0.00042771	3	6.06758e-06	1.56343e-08
2	0	0	0	0	55.1551	-0.0593021	-0.0595551	-0.000368067	3	5.88435e-06	2.19203e-08
2	0	0	0	0	55.6151	-0.0823032	-0.0825535	-0.000331402	3	5.72337e-06	2.73584e-08
2	0	0	1	0	56.0753	-0.105304	-0.105508	-0.000303414	3	5.5773e-06	3.20127e-08
2	0	0	1	0	56.5353	-0.128305	-0.128497	-0.00028436	3	5.44202e-06	3.65394e-08
2	0	0	1	0	56.9953	-0.151306	-0.151506	-0.000269386	3	5.3146e-06	4.08136e-08
2	0	0	1	0	57.4553	-0.174307	-0.174568	-0.000258312	3	5.19255e-06	4.50931e-08
2	0	0	1	0	57.9153	-0.197308	-0.197514	-0.000256255	3	5.07345e-06	5.0614e-08
2	1	0	0	1	58.3647	-0.180208	-0.180416	-8.40857e-05	3	5.01826e-06	1.51704e-08
2	1	0	0	1	58.8247	-0.157207	-0.157421	-5.61749e-05	3	4.98779e-06	8.84308e-09
2	1	0	0	1	59.2847	-0.134206	-0.134404	-3.92598e-05	3	4.9674e-06	5.27669e-09
2	1	0	0	1	59.7447	-0.111204	-0.111375	-2.44027e-05	3	4.95416e-06	2.71785e-09
2	1	0	1	1	60.2049	-0.0882034	-0.0883471	-1.37089e-05	3	4.94656e-06	1.21114e-09
2	1	0	1	1	60.638	-0.0665274	-0.0668615	-1.61024e-05	3	4.94362e-06	1.07663e-09