File: AutoAnalysis Examples/EC/C003B-5ppb-B_C01.mpt
EC-Lab ASCII FILE
Nb header lines : 59

Cyclic Voltammetry

Run on channel : 1 (SN 22398)
User :
CE vs. WE compliance from -10 V to 10 V
Electrode connection : standard
Ewe ctrl range : min = -1.00 V, max = 1.00 V
Safety Limits :
	Ewe min = -2.00 V
	Ewe max = 2.00 V
	|I| = 50.000 mA
	for t > 10 ms
Acquisition started on : 11/21/2018 11:11:32
Technique started on : 11/21/2018 11:11:32
Saved on :
	File : C003B-5ppb-B_C01.mpr
	Directory : \\ECCOMPUTER\Users\Lab User\Google Drive\Electrochemical Data\EC-Lab\Data\FREDsense\Tim\2018.11.21 - EC comparison to High Throughput\
	Host : 172.16.1.30
Device : SP-50 (SN 0301030103010301)
Address : USB
EC-Lab for windows v11.02 (software)
Internet server v11.02 (firmware)
Command interpretor v11.02 (firmware)
Electrode material : Au/Pd
Initial state :
Electrolyte : NaCl (0.2M)
Comments : Fe(CN)63-/Fe(CN)64- 5.10-3 M
Reference electrode : SCE Saturated Calomel Electrode (0.241 V)
Electrode surface area : 0.001 cm²
Characteristic mass : 0.001 g
Equivalent Weight : 0.000 g/eq.
Density : 0.000 g/cm3
Cycle Definition : Charge/Discharge alternance
Ei (V)              -0.100
vs.                 Ref
dE/dt               50.000
dE/dt unit          mV/s
E1 (V)              0.300
vs.                 Ref
Step percent        50
N                   10
E range min (V)     -1.000
E range max (V)     1.000
I Range             Auto
I Range min         Unset
I Range max         Unset
I Range init        Unset
Bandwidth           5
E2 (V)              -0.200
vs.                 Ref
nc cycles           2
Reverse Scan        1
Ef (V)              0.000
vs.                 Eoc

mode	ox/red	error	control changes	counter inc.	time/s	control/V	Ewe/V	<I>/mA	cycle number	(Q-Qo)/C	P/W
2	1	0	1	0	0.000000000000000E+000	-0.0984851	-0.0988121	-8.57715e-05	1	0.0000000E+000	8.47526e-09
2	1	0	1	0	0.4865	-0.0741592	-0.0743635	4.82068e-05	1	1.85111e-08	-3.58482e-09
2	1	0	1	0	0.9465	-0.0511582	-0.0513683	5.93457e-05	1	4.44945e-08	-3.04849e-09
2	1	0	1	0	1.4065	-0.0281573	-0.028388	6.94283e-05	1	7.52211e-08	-1.97093e-09
2	1	0	1	0	1.8665	-0.00515635	-0.00538116	9.78284e-05	1	1.14056e-07	-5.2643e-10
2	1	0	1	0	2.3265	0.0178446	0.0175939	0.00019164	1	1.7754e-07	3.37168e-09
2	1	0	1	0	2.7865	0.0408455	0.0406028	0.000472099	1	3.21917e-07	1.91686e-08
2	1	0	1	0	3.2465	0.0638464	0.06367	0.000957906	1	6.5033e-07	6.09899e-08
2	1	0	1	0	3.7065	0.0868473	0.0866832	0.00122459	1	1.16996e-06	1.06152e-07
2	1	0	1	0	4.1665	0.109848	0.109674	0.0011513	1	1.72578e-06	1.26268e-07
2	1	0	1	0	4.6265	0.132849	0.132643	0.000997623	1	2.22042e-06	1.32328e-07
2	1	0	0	0	5.0867	0.15585	0.155727	0.000883348	1	2.65298e-06	1.37561e-07
2	1	0	0	0	5.5467	0.178851	0.178731	0.000809354	1	3.04223e-06	1.44656e-07
2	1	0	0	0	6.0067	0.201852	0.201633	0.000758589	1	3.40333e-06	1.52957e-07
2	1	0	0	0	6.4667	0.224853	0.224691	0.000729186	1	3.74626e-06	1.63841e-07
2	1	0	0	0	6.9267	0.247854	0.247636	0.00070928	1	4.07795e-06	1.75643e-07
2	1	0	0	0	7.3867	0.270855	0.270728	0.0007	1	4.40339e-06	1.89509e-07
2	1	0	0	0	7.8467	0.293856	0.293742	0.000699511	1	4.72635e-06	2.05476e-07
2	0	0	1	0	8.2953	0.283705	0.28355	0.000483899	1	4.98498e-06	1.3721e-07
2	0	0	1	0	8.7553	0.260704	0.260512	0.000410099	1	5.18746e-06	1.06836e-07
2	0	0	1	0	9.2153	0.237703	0.23743	0.000367773	1	5.36481e-06	8.73204e-08
2	0	0	1	0	9.6753	0.214702	0.214477	0.000336428	1	5.52546e-06	7.21559e-08
2	0	0	1	0	10.1353	0.191702	0.191503	0.000308597	1	5.67286e-06	5.9097e-08
2	0	0	1	0	10.5953	0.168701	0.168539	0.000284079	1	5.80805e-06	4.78784e-08
2	0	0	0	0	11.0555	0.1457	0.145502	0.000253602	1	5.93058e-06	3.68994e-08
2	0	0	0	0	11.5155	0.122699	0.122477	0.000205465	1	6.03612e-06	2.51648e-08
2	0	0	0	0	11.9755	0.0996979	0.0994605	0.000113376	1	6.11195e-06	1.12764e-08
2	0	0	0	0	12.4355	0.0766969	0.0764992	-0.000108268	1	6.11963e-06	-8.28239e-09
2	0	0	0	0	12.8955	0.053696	0.0534839	-0.000548469	1	5.97375e-06	-2.93343e-08
2	0	0	0	0	13.3555	0.0306951	0.0305015	-0.000918911	1	5.62094e-06	-2.80281e-08
2	0	0	0	0	13.8155	0.00769417	0.00751906	-0.000860749	1	5.1979e-06	-6.47202e-09
2	0	0	0	0	14.2755	-0.0153068	-0.0155461	-0.000669088	1	4.84596e-06	1.04017e-08
2	0	0	0	0	14.7355	-0.0383077	-0.0384999	-0.000532517	1	4.57143e-06	2.05019e-08
2	0	0	0	0	15.1955	-0.0613086	-0.0615767	-0.00044722	1	4.34653e-06	2.75383e-08
2	0	0	0	0	15.6555	-0.0843096	-0.0845422	-0.000393283	1	4.15288e-06	3.3249e-08
2	0	0	1	0	16.1157	-0.107311	-0.107492	-0.000355503	1	3.98027e-06	3.82136e-08
2	0	0	1	0	16.5757	-0.130311	-0.130536	-0.000327124	1	3.82272e-06	4.27014e-08
2	0	0	1	0	17.0357	-0.153312	-0.153513	-0.000307579	1	3.67613e-06	4.72173e-08
2	0	0	1	0	17.4957	-0.176313	-0.176576	-0.000294085	1	3.53735e-06	5.19284e-08
2	0	0	1	0	17.9557	-0.199314	-0.199547	-0.000285646	1	3.40368e-06	5.69996e-08
2	1	0	0	1	18.4051	-0.178213	-0.178372	-0.000117453	1	3.33825e-06	2.09503e-08
2	1	0	0	1	18.8651	-0.155212	-0.155465	-8.78852e-05	1	3.29282e-06	1.3663e-08
2	1	0	0	1	19.3251	-0.132212	-0.132388	-6.65136e-05	1	3.2588e-06	8.80558e-09
2	1	0	0	1	19.7851	-0.109211	-0.109472	-5.31702e-05	1	3.23306e-06	5.82065e-09
2	1	0	1	1	20.2453	-0.0862097	-0.0863868	-3.72567e-05	2	3.21389e-06	3.21849e-09
2	1	0	1	1	20.7053	-0.0632087	-0.0634446	-2.59412e-05	2	3.20036e-06	1.64583e-09
2	1	0	1	1	21.1653	-0.0402078	-0.0403678	-1.37601e-05	2	3.1921e-06	5.55468e-10
2	1	0	1	1	21.6253	-0.0172068	-0.0173896	5.59248e-06	2	3.1908e-06	-9.72513e-11
2	1	0	1	1	22.0853	0.00579409	0.00557691	5.72136e-05	2	3.2044e-06	3.19075e-10
2	1	0	1	1	22.5453	0.028795	0.0286579	0.000220603	2	3.26329e-06	6.32204e-09
2	1	0	1	1	23.0053	0.0517959	0.0516202	0.000595263	2	3.44358e-06	3.07276e-08
2	1	0	1	1	23.4653	0.0747969	0.0746069	0.00100969	2	3.82069e-06	7.53299e-08
2	1	0	1	1	23.9253	0.0977978	0.0975946	0.0011087	2	4.32335e-06	1.08203e-07
2	1	0	1	1	24.3853	0.120799	0.120637	0.000980078	2	4.80833e-06	1.18234e-07
2	1	0	1	1	24.8453	0.1438	0.143572	0.000841866	2	5.2274e-06	1.20869e-07
2	1	0	0	1	25.3055	0.166801	0.166644	0.000742174	2	5.59182e-06	1.23679e-07
2	1	0	0	1	25.7655	0.189801	0.189603	0.000675309	2	5.91856e-06	1.28041e-07
2	1	0	0	1	26.2255	0.212802	0.212563	0.00063114	2	6.22127e-06	1.34157e-07
2	1	0	0	1	26.6855	0.235803	0.235649	0.000600225	2	6.50525e-06	1.41443e-07
2	1	0	0	1	27.1455	0.258804	0.258603	0.000582485	2	6.77852e-06	1.50632e-07
2	1	0	0	1	27.6055	0.281805	0.281669	0.000579726	2	7.04675e-06	1.63291e-07
2	0	0	0	1	28.0551	0.295706	0.295528	0.000450314	2	7.29805e-06	1.33081e-07
2	0	0	0	1	28.5151	0.272705	0.272487	0.000368603	2	7.48296e-06	1.00439e-07
2	0	0	0	1	28.9751	0.249704	0.249507	0.000336098	2	7.64325e-06	8.38588e-08
2	0	0	0	1	29.4351	0.226703	0.22647	0.000300994	2	7.78719e-06	6.8166e-08
2	0	0	0	1	29.8951	0.203702	0.20347	0.000275489	2	7.91873e-06	5.60538e-08
2	0	0	0	1	30.3551	0.180701	0.180517	0.000253298	2	8.03989e-06	4.57244e-08
2	0	0	0	1	30.8151	0.1577	0.157496	0.000228609	2	8.15027e-06	3.60049e-08
2	0	0	1	1	31.2753	0.134699	0.134459	0.00019884	2	8.24817e-06	2.67359e-08
2	0	0	1	1	31.7353	0.111698	0.11152	0.000140905	2	8.32655e-06	1.57138e-08
2	0	0	1	1	32.1953	0.0886974	0.0884861	8.87798e-06	2	8.3646e-06	7.85577e-10
2	0	0	1	1	32.6553	0.0656965	0.0654707	-0.000303052	2	8.30489e-06	-1.9841e-08
2	0	0	1	1	33.1153	0.0426956	0.0424724	-0.000771307	2	8.0565e-06	-3.27593e-08
2	0	0	1	1	33.5753	0.0196946	0.0194826	-0.000957365	2	7.63979e-06	-1.86519e-08
2	0	0	1	1	34.0353	-0.00330628	-0.00360695	-0.00080436	2	7.22774e-06	2.90129e-09
2	0	0	1	1	34.4953	-0.0263072	-0.0265618	-0.000634027	2	6.89871e-06	1.68409e-08
2	0	0	1	1	34.9553	-0.0493081	-0.0495008	-0.000520006	2	6.63456e-06	2.57407e-08
2	0	0	1	1	35.4153	-0.0723091	-0.0725373	-0.000452038	2	6.41102e-06	3.27897e-08
2	0	0	1	1	35.8753	-0.09531	-0.0955844	-0.000404137	2	6.21413e-06	3.86292e-08
2	0	0	0	1	36.3355	-0.118311	-0.118564	-0.000369231	2	6.03582e-06	4.37775e-08
2	0	0	0	1	36.7955	-0.141312	-0.141549	-0.000342596	2	5.87128e-06	4.84942e-08
2	0	0	0	1	37.2555	-0.164313	-0.164493	-0.000324036	2	5.71699e-06	5.33016e-08
2	0	0	0	1	37.7155	-0.187314	-0.18752	-0.000313134	2	5.56993e-06	5.87188e-08
2	1	0	1	0	38.1649	-0.190214	-0.190442	-0.000165047	2	5.45572e-06	3.14319e-08
2	1	0	1	0	38.6249	-0.167213	-0.167448	-0.000120442	2	5.39243e-06	2.01677e-08
2	1	0	1	0	39.0849	-0.144212	-0.144433	-9.76551e-05	2	5.34366e-06	1.41046e-08
2	1	0	1	0	39.5449	-0.121211	-0.121408	-7.86045e-05	2	5.30484e-06	9.54322e-09
2	1	0	0	0	40.0051	-0.0982101	-0.0984712	-6.40388e-05	3	5.27381e-06	6.30598e-09
2	1	0	0	0	40.4651	-0.0752092	-0.0754315	-5.03793e-05	3	5.24916e-06	3.80019e-09
2	1	0	0	0	40.9251	-0.0522083	-0.0524395	-3.53278e-05	3	5.23008e-06	1.85257e-09
2	1	0	0	0	41.3851	-0.0292073	-0.0294348	-2.37844e-05	3	5.21707e-06	7.0009e-10
2	1	0	0	0	41.8451	-0.0062064	-0.00642688	7.0374e-06	3	5.21394e-06	-4.52285e-11
2	1	0	0	0	42.3051	0.0167945	0.0166001	0.000101216	3	5.23647e-06	1.6802e-09
2	1	0	0	0	42.7651	0.0397955	0.0396493	0.000349526	3	5.33317e-06	1.38584e-08
2	1	0	0	0	43.2251	0.0627964	0.0626254	0.000777799	3	5.59119e-06	4.871e-08
2	1	0	0	0	43.6851	0.0857973	0.0856195	0.00106777	3	6.03007e-06	9.14222e-08
2	1	0	0	0	44.1451	0.108798	0.10858	0.00103375	3	6.52403e-06	1.12245e-07
2	1	0	0	0	44.6051	0.131799	0.131667	0.000890953	3	6.96818e-06	1.17309e-07
2	1	0	1	0	45.0653	0.1548	0.154662	0.000768299	3	7.34974e-06	1.18827e-07
2	1	0	1	0	45.5253	0.177801	0.177602	0.000686452	3	7.68461e-06	1.21915e-07
2	1	0	1	0	45.9853	0.200802	0.200681	0.000627482	3	7.98752e-06	1.25924e-07
2	1	0	1	0	46.4453	0.223803	0.223657	0.000590663	3	8.26854e-06	1.32106e-07
2	1	0	1	0	46.9053	0.246804	0.246596	0.000562998	3	8.53446e-06	1.38833e-07
2	1	0	1	0	47.3653	0.269805	0.269661	0.000548053	3	8.79075e-06	1.47789e-07
2	1	0	1	0	47.8253	0.292806	0.292618	0.000545382	3	9.04267e-06	1.59589e-07
2	0	0	1	0	48.2749	0.284705	0.284509	0.00037532	3	9.24542e-06	1.06782e-07
2	0	0	1	0	48.7349	0.261704	0.261506	0.000327396	3	9.40553e-06	8.5616e-08
2	0	0	1	0	49.1949	0.238703	0.238485	0.000297979	3	9.54809e-06	7.10635e-08
2	0	0	1	0	49.6549	0.215703	0.215505	0.000272262	3	9.67826e-06	5.86737e-08
2	0	0	1	0	50.1149	0.192702	0.192517	0.000249931	3	9.798e-06	4.8116e-08
2	0	0	1	0	50.5749	0.169701	0.169486	0.000229771	3	9.90773e-06	3.8943e-08
2	0	0	0	0	51.0351	0.1467	0.146459	0.000204017	3	1.00066e-05	2.98801e-08
2	0	0	0	0	51.4951	0.123699	0.123457	0.000164446	3	1.00908e-05	2.03021e-08
2	0	0	0	0	51.9551	0.100698	0.10047	8.35877e-05	3	1.01493e-05	8.39803e-09
2	0	0	0	0	52.4151	0.077697	0.0774735	-0.000115135	3	1.01481e-05	-8.91994e-09
2	0	0	0	0	52.8751	0.0546961	0.0544826	-0.00051734	3	1.00094e-05	-2.8186e-08
2	0	0	0	0	53.3351	0.0316951	0.0314938	-0.000914338	3	9.6682e-06	-2.87959e-08
2	0	0	0	0	53.7951	0.00869421	0.00847105	-0.000912287	3	9.23234e-06	-7.72803e-09
2	0	0	0	0	54.2551	-0.0143067	-0.0145697	-0.000727215	3	8.85375e-06	1.05953e-08
2	0	0	0	0	54.7151	-0.0373077	-0.0375871	-0.000587003	3	8.55337e-06	2.20638e-08
2	0	0	0	0	55.1751	-0.0603086	-0.0605537	-0.000496371	3	8.30526e-06	3.00571e-08
2	0	0	0	0	55.6351	-0.0833095	-0.083604	-0.000437731	3	8.09022e-06	3.6596e-08
2	0	0	1	0	56.0953	-0.10631	-0.106555	-0.000396895	3	7.89769e-06	4.2291e-08
2	0	0	1	0	56.5553	-0.129311	-0.129541	-0.000365224	3	7.72149e-06	4.73115e-08
2	0	0	1	0	57.0153	-0.152312	-0.152473	-0.000343873	3	7.5576e-06	5.24313e-08
2	0	0	1	0	57.4753	-0.175313	-0.175559	-0.000326509	3	7.40285e-06	5.73217e-08
2	0	0	1	0	57.9353	-0.198314	-0.198544	-0.000317725	3	7.25427e-06	6.30823e-08
2	1	0	0	1	58.3847	-0.179213	-0.179473	-0.000147688	3	7.17296e-06	2.65061e-08
2	1	0	0	1	58.8447	-0.156213	-0.156443	-0.000117545	3	7.11422e-06	1.83891e-08
2	1	0	0	1	59.3047	-0.133212	-0.133399	-9.56609e-05	3	7.06731e-06	1.27611e-08
2	1	0	0	1	59.7647	-0.110211	-0.110411	-7.8306e-05	3	7.02928e-06	8.64587e-09
2	1	0	1	1	60.2249	-0.0872097	-0.0874098	-6.24915e-05	3	6.99837e-06	5.46237e-09
2	1	0	1	1	60.6849	-0.0642088	-0.0643956	-5.08386e-05	3	6.97348e-06	3.27378e-09
2	1	0	0	1	60.6966	-0.0635837	-0.063857	-4.97204e-05	3	6.97293e-06	3.175e-09