File: AutoAnalysis Examples/EC/C003C-20ppb-A_C01.mpt
EC-Lab ASCII FILE
Nb header lines : 59

Cyclic Voltammetry

Run on channel : 1 (SN 22398)
User :
CE vs. WE compliance from -10 V to 10 V
Electrode connection : standard
Ewe ctrl range : min = -1.00 V, max = 1.00 V
Safety Limits :
	Ewe min = -2.00 V
	Ewe max = 2.00 V
	|I| = 50.000 mA
	for t > 10 ms
Acquisition started on : 11/21/2018 10:33:11
Technique started on : 11/21/2018 10:33:11
Saved on :
	File : C003C-20ppb-A_C01.mpr
	Directory : \\ECCOMPUTER\Users\Lab User\Google Drive\Electrochemical Data\EC-Lab\Data\FREDsense\Tim\2018.11.21 - EC comparison to High Throughput\
	Host : 172.16.1.30
Device : SP-50 (SN 0301030103010301)
Address : USB
EC-Lab for windows v11.02 (software)
Internet server v11.02 (firmware)
Command interpretor v11.02 (firmware)
Electrode material : Au/Pd
Initial state :
Electrolyte : NaCl (0.2M)
Comments : Fe(CN)63-/Fe(CN)64- 5.10-3 M
Reference electrode : SCE Saturated Calomel Electrode (0.241 V)
Electrode surface area : 0.001 cm²
Characteristic mass : 0.001 g
Equivalent Weight : 0.000 g/eq.
Density : 0.000 g/cm3
Cycle Definition : Charge/Discharge alternance
Ei (V)              -0.100
vs.                 Ref
dE/dt               50.000
dE/dt unit          mV/s
E1 (V)              0.300
vs.                 Ref
Step percent        50
N                   10
E range min (V)     -1.000
E range max (V)     1.000
I Range             Auto
I Range min         Unset
I Range max         Unset
I Range init        Unset
Bandwidth           5
E2 (V)              -0.200
vs.                 Ref
nc cycles           2
Reverse Scan        1
Ef (V)              0.000
vs.                 Eoc

mode	ox/red	error	control changes	counter inc.	time/s	control/V	Ewe/V	<I>/mA	cycle number	(Q-Qo)/C	P/W
2	1	0	1	0	0.000000000000000E+000	-0.0984885	-0.0988089	-0.000157625	1	0.0000000E+000	1.55748e-08
2	1	0	1	0	0.4865	-0.0741628	-0.0742575	4.84859e-05	1	1.89261e-08	-3.60044e-09
2	1	0	1	0	0.9465	-0.051162	-0.0512941	6.07994e-05	1	4.55471e-08	-3.11865e-09
2	1	0	1	0	1.4065	-0.0281612	-0.0282809	7.49765e-05	1	7.78208e-08	-2.1204e-09
2	1	0	1	0	1.8665	-0.00516042	-0.00520834	0.000119094	1	1.22119e-07	-6.20283e-10
2	1	0	1	0	2.3265	0.0178404	0.0177826	0.00028339	1	2.08264e-07	5.0394e-09
2	1	0	1	0	2.7865	0.0408411	0.0407067	0.000780134	1	4.37246e-07	3.17567e-08
2	1	0	1	0	3.2465	0.0638419	0.0637315	0.00160318	1	9.85961e-07	1.02173e-07
2	1	0	1	0	3.7065	0.0868426	0.0867861	0.00201958	1	1.84872e-06	1.75271e-07
2	1	0	1	0	4.1665	0.109843	0.109759	0.00187076	1	2.75707e-06	2.05333e-07
2	1	0	1	0	4.6265	0.132844	0.132714	0.00161569	1	3.55867e-06	2.14425e-07
2	1	0	1	0	5.0865	0.155845	0.155749	0.00142077	1	4.25526e-06	2.21284e-07
2	1	0	1	0	5.5465	0.178846	0.178719	0.00128867	1	4.87802e-06	2.30309e-07
2	1	0	0	0	6.0067	0.201847	0.201719	0.00119561	1	5.44949e-06	2.41177e-07
2	1	0	0	0	6.4667	0.224847	0.224718	0.00113183	1	5.98528e-06	2.54342e-07
2	1	0	0	0	6.9267	0.247848	0.247689	0.00108481	1	6.49557e-06	2.68695e-07
2	1	0	0	0	7.3867	0.270849	0.2707	0.00104987	1	6.98823e-06	2.842e-07
2	1	0	0	0	7.8467	0.29385	0.293733	0.00102829	1	7.46688e-06	3.02043e-07
2	0	0	1	0	8.2851	0.284249	0.284095	0.000787385	1	7.85884e-06	2.23692e-07
2	0	0	1	0	8.7451	0.261248	0.261073	0.000704559	1	8.19946e-06	1.83941e-07
2	0	0	1	0	9.2051	0.238248	0.238068	0.000647248	1	8.50871e-06	1.54089e-07
2	0	0	1	0	9.6651	0.215247	0.215144	0.000602542	1	8.79551e-06	1.29633e-07
2	0	0	0	0	10.1253	0.192246	0.19207	0.000566872	1	9.06329e-06	1.08879e-07
2	0	0	0	0	10.5853	0.169245	0.169111	0.000523328	1	9.31271e-06	8.85006e-08
2	0	0	0	0	11.0453	0.146245	0.146087	0.000475452	1	9.5421e-06	6.94575e-08
2	0	0	0	0	11.5053	0.123244	0.123134	0.000407043	1	9.74537e-06	5.01206e-08
2	0	0	0	0	11.9653	0.100243	0.100096	0.000260305	1	9.90223e-06	2.60555e-08
2	0	0	0	0	12.4253	0.0772423	0.0770923	-0.000100434	1	9.95051e-06	-7.74266e-09
2	0	0	0	0	12.8853	0.0542416	0.0540993	-0.000842451	1	9.74585e-06	-4.5576e-08
2	0	0	0	0	13.3453	0.0312408	0.0310532	-0.00150554	1	9.18243e-06	-4.67518e-08
2	0	0	0	0	13.8053	0.00824003	0.00811424	-0.00143994	1	8.48007e-06	-1.1684e-08
2	0	0	0	0	14.2653	-0.0147607	-0.0149032	-0.00111435	1	7.89226e-06	1.66074e-08
2	0	0	0	0	14.7253	-0.0377615	-0.0379068	-0.000871843	1	7.43878e-06	3.30488e-08
2	0	0	0	0	15.1853	-0.0607623	-0.060938	-0.000719907	1	7.07403e-06	4.38697e-08
2	0	0	0	0	15.6453	-0.0837631	-0.0839321	-0.000619835	1	6.76617e-06	5.20241e-08
2	0	0	1	0	16.1055	-0.106764	-0.106892	-0.000549268	1	6.49698e-06	5.87125e-08
2	0	0	1	0	16.5655	-0.129765	-0.129896	-0.000500314	1	6.25566e-06	6.49888e-08
2	0	0	1	0	17.0255	-0.152765	-0.152825	-0.000458136	1	6.03516e-06	7.00148e-08
2	0	0	1	0	17.4855	-0.175766	-0.175901	-0.000428634	1	5.83052e-06	7.53971e-08
2	0	0	1	0	17.9455	-0.198767	-0.19889	-0.000407961	1	5.6375e-06	8.11394e-08
2	1	0	1	1	18.3959	-0.178716	-0.178851	-0.00022222	1	5.52024e-06	3.97443e-08
2	1	0	1	1	18.8559	-0.155716	-0.155778	-0.000181653	1	5.42893e-06	2.82974e-08
2	1	0	1	1	19.3159	-0.132715	-0.132828	-0.000155346	1	5.3533e-06	2.06343e-08
2	1	0	1	1	19.7759	-0.109714	-0.10979	-0.000129461	1	5.28961e-06	1.42135e-08
2	1	0	0	1	20.2361	-0.0867132	-0.0868655	-0.00011085	2	5.23574e-06	9.62905e-09
2	1	0	0	1	20.6961	-0.0637124	-0.0638778	-9.33522e-05	2	5.19032e-06	5.96313e-09
2	1	0	0	1	21.1561	-0.0407116	-0.0408052	-7.10779e-05	2	5.15348e-06	2.90035e-09
2	1	0	0	1	21.6161	-0.0177108	-0.0178079	-3.89207e-05	2	5.12835e-06	6.93097e-10
2	1	0	0	1	22.0761	0.00528993	0.00521692	5.28701e-05	2	5.12931e-06	2.75819e-10
2	1	0	0	1	22.5361	0.0282907	0.0281654	0.000337585	2	5.20963e-06	9.50822e-09
2	1	0	0	1	22.9961	0.0512915	0.0511956	0.000996475	2	5.5039e-06	5.10151e-08
2	1	0	0	1	23.4561	0.0742922	0.0741939	0.00171158	2	6.14038e-06	1.26989e-07
2	1	0	0	1	23.9161	0.097293	0.0971944	0.0018592	2	6.98699e-06	1.80704e-07
2	1	0	0	1	24.3761	0.120294	0.12021	0.00163783	2	7.79826e-06	1.96883e-07
2	1	0	0	1	24.8361	0.143295	0.14314	0.00140199	2	8.49637e-06	2.00681e-07
2	1	0	0	1	25.2961	0.166295	0.16616	0.00123404	2	9.10142e-06	2.05048e-07
2	1	0	0	1	25.7561	0.189296	0.18915	0.00111726	2	9.64167e-06	2.11329e-07
2	1	0	1	1	26.2163	0.212297	0.212183	0.001035	2	1.01369e-05	2.19609e-07
2	1	0	1	1	26.6763	0.235298	0.23513	0.00097537	2	1.06e-05	2.29339e-07
2	1	0	1	1	27.1363	0.258298	0.258141	0.000931963	2	1.10393e-05	2.40578e-07
2	1	0	1	1	27.5963	0.281299	0.281197	0.000903059	2	1.14621e-05	2.53938e-07
2	0	0	1	1	28.0357	0.29675	0.296585	0.000757291	2	1.18494e-05	2.24601e-07
2	0	0	1	1	28.4957	0.273749	0.273611	0.000650542	2	1.21685e-05	1.77995e-07
2	0	0	1	1	28.9557	0.250748	0.250614	0.000596904	2	1.24538e-05	1.49593e-07
2	0	0	1	1	29.4157	0.227747	0.227563	0.000553316	2	1.27173e-05	1.25914e-07
2	0	0	1	1	29.8757	0.204747	0.204622	0.000517505	2	1.2963e-05	1.05893e-07
2	0	0	0	1	30.3359	0.181746	0.181576	0.000482057	2	1.31923e-05	8.75299e-08
2	0	0	0	1	30.7959	0.158745	0.158622	0.00044415	2	1.34044e-05	7.0452e-08
2	0	0	0	1	31.2559	0.135744	0.135577	0.00039238	2	1.35964e-05	5.31978e-08
2	0	0	0	1	31.7159	0.112744	0.112586	0.000302509	2	1.37578e-05	3.40584e-08
2	0	0	0	1	32.1759	0.0897427	0.0896452	9.58394e-05	2	1.3856e-05	8.59155e-09
2	0	0	0	1	32.6359	0.066742	0.0665748	-0.000409044	2	1.37982e-05	-2.7232e-08
2	0	0	0	1	33.0959	0.0437412	0.0436008	-0.00121942	2	1.3425e-05	-5.31678e-08
2	0	0	0	1	33.5559	0.0207404	0.0205845	-0.00160097	2	1.27444e-05	-3.29552e-08
2	0	0	0	1	34.0159	-0.00226032	-0.002434	-0.00136312	2	1.20498e-05	3.31783e-09
2	0	0	0	1	34.4759	-0.0252611	-0.0254663	-0.00105941	2	1.14957e-05	2.69793e-08
2	0	0	0	1	34.9359	-0.0482619	-0.0484254	-0.000856842	2	1.10578e-05	4.14929e-08
2	0	0	0	1	35.3959	-0.0712626	-0.0714121	-0.000728684	2	1.06944e-05	5.20369e-08
2	0	0	0	1	35.8559	-0.0942634	-0.0944115	-0.000636729	2	1.03804e-05	6.01146e-08
2	0	0	1	1	36.3161	-0.117264	-0.117432	-0.000574828	2	1.01009e-05	6.75032e-08
2	0	0	1	1	36.7761	-0.140265	-0.140382	-0.00052666	2	9.84711e-06	7.39334e-08
2	0	0	1	1	37.2361	-0.163266	-0.163396	-0.000488499	2	9.61314e-06	7.98187e-08
2	0	0	1	1	37.6961	-0.186267	-0.186425	-0.000461533	2	9.39439e-06	8.60412e-08
2	1	0	1	0	38.1465	-0.191217	-0.191296	-0.000295267	2	9.21432e-06	5.64835e-08
2	1	0	1	0	38.6065	-0.168216	-0.168306	-0.000237895	2	9.09443e-06	4.00392e-08
2	1	0	1	0	39.0665	-0.145215	-0.145287	-0.000202895	2	8.99449e-06	2.9478e-08
2	1	0	1	0	39.5265	-0.122214	-0.122267	-0.00017559	2	8.909e-06	2.1469e-08
2	1	0	1	0	39.9865	-0.0992136	-0.0993464	-0.000151278	3	8.83514e-06	1.50289e-08
2	1	0	0	0	40.4467	-0.0762128	-0.0763003	-0.000133826	3	8.77087e-06	1.02109e-08
2	1	0	0	0	40.9067	-0.053212	-0.05339	-0.000113203	3	8.71549e-06	6.0439e-09
2	1	0	0	0	41.3667	-0.0302113	-0.0303587	-8.70426e-05	3	8.67026e-06	2.6425e-09
2	1	0	0	0	41.8267	-0.00721049	-0.00727029	-3.40631e-05	3	8.64194e-06	2.47649e-10
2	1	0	0	0	42.2867	0.0157903	0.0157068	0.000124955	3	8.65756e-06	1.96265e-09
2	1	0	0	0	42.7467	0.038791	0.0387253	0.000556242	3	8.80165e-06	2.15406e-08
2	1	0	0	0	43.2067	0.0617918	0.0617502	0.00130447	3	9.22654e-06	8.05511e-08
2	1	0	0	0	43.6667	0.0847926	0.0846828	0.00181038	3	9.96659e-06	1.53308e-07
2	1	0	0	0	44.1267	0.107793	0.107647	0.0017517	3	1.08027e-05	1.88566e-07
2	1	0	0	0	44.5867	0.130794	0.130673	0.00150422	3	1.15533e-05	1.96561e-07
2	1	0	0	0	45.0467	0.153795	0.153764	0.00129674	3	1.21961e-05	1.99391e-07
2	1	0	0	0	45.5067	0.176796	0.176719	0.0011548	3	1.27593e-05	2.04075e-07
2	1	0	1	0	45.9669	0.199796	0.199659	0.0010525	3	1.32668e-05	2.10141e-07
2	1	0	1	0	46.4269	0.222797	0.222662	0.000980786	3	1.37351e-05	2.18384e-07
2	1	0	1	0	46.8869	0.245798	0.245614	0.000925171	3	1.41743e-05	2.27235e-07
2	1	0	1	0	47.3469	0.268799	0.268751	0.000885424	3	1.45911e-05	2.37959e-07
2	1	0	1	0	47.8069	0.291799	0.291675	0.000859262	3	1.49927e-05	2.50625e-07
2	0	0	1	0	48.2463	0.286249	0.28606	0.000663879	3	1.53264e-05	1.89909e-07
2	0	0	1	0	48.7063	0.263249	0.263091	0.000597174	3	1.56148e-05	1.57111e-07
2	0	0	1	0	49.1663	0.240248	0.24006	0.000553196	3	1.58782e-05	1.328e-07
2	0	0	1	0	49.6263	0.217247	0.217105	0.0005153	3	1.6123e-05	1.11874e-07
2	0	0	0	0	50.0865	0.194246	0.194105	0.000480234	3	1.63513e-05	9.32155e-08
2	0	0	0	0	50.5465	0.171245	0.171177	0.000443175	3	1.6563e-05	7.58614e-08
2	0	0	0	0	51.0065	0.148245	0.148076	0.000401334	3	1.67569e-05	5.9428e-08
2	0	0	0	0	51.4665	0.125244	0.125133	0.000339731	3	1.69277e-05	4.25115e-08
2	0	0	0	0	51.9265	0.102243	0.102097	0.000214361	3	1.70582e-05	2.18857e-08
2	0	0	0	0	52.3865	0.0792424	0.0791532	-9.29742e-05	3	1.70959e-05	-7.3592e-09
2	0	0	0	0	52.8465	0.0562416	0.0561379	-0.000757699	3	1.69134e-05	-4.25356e-08
2	0	0	0	0	53.3065	0.0332409	0.0331289	-0.00148637	3	1.63816e-05	-4.9242e-08
2	0	0	0	0	53.7665	0.0102401	0.0101211	-0.00155161	3	1.56543e-05	-1.57039e-08
2	0	0	0	0	54.2265	-0.0127607	-0.0129335	-0.00123984	3	1.50092e-05	1.60354e-08
2	0	0	0	0	54.6865	-0.0357614	-0.0359488	-0.000978795	3	1.45023e-05	3.51865e-08
2	0	0	0	0	55.1465	-0.0587622	-0.058944	-0.000815605	3	1.40914e-05	4.8075e-08
2	0	0	0	0	55.6065	-0.081763	-0.0818893	-0.000706194	3	1.37424e-05	5.78298e-08
2	0	0	1	0	56.0667	-0.104764	-0.104927	-0.00062786	3	1.34356e-05	6.58794e-08
2	0	0	1	0	56.5267	-0.127765	-0.127898	-0.000571569	3	1.31593e-05	7.31023e-08
2	0	0	1	0	56.9867	-0.150765	-0.150894	-0.000525586	3	1.29062e-05	7.93077e-08
2	0	0	1	0	57.4467	-0.173766	-0.173909	-0.000491021	3	1.26715e-05	8.53931e-08
2	0	0	1	0	57.9067	-0.196767	-0.196903	-0.00046739	3	1.24505e-05	9.20306e-08
2	1	0	1	1	58.3571	-0.180716	-0.180866	-0.000279963	3	1.23021e-05	5.06357e-08
2	1	0	1	1	58.8171	-0.157716	-0.15782	-0.000234969	3	1.21859e-05	3.70828e-08
2	1	0	1	1	59.2771	-0.134715	-0.134838	-0.00020212	3	1.20868e-05	2.72535e-08
2	1	0	1	1	59.7371	-0.111714	-0.111845	-0.000176292	3	1.20011e-05	1.97174e-08
2	1	0	0	1	60.1973	-0.0887132	-0.0888183	-0.000154715	3	1.19262e-05	1.37415e-08
2	1	0	0	1	60.6573	-0.0657125	-0.0658104	-0.000135797	3	1.18605e-05	8.93685e-09
2	1	0	0	1	60.7396	-0.0615873	-0.0616557	-0.000122341	3	1.18497e-05	7.54299e-09