File: AutoAnalysis Examples/EC/C003C-20ppb-B_C01.mpt
EC-Lab ASCII FILE
Nb header lines : 59

Cyclic Voltammetry

Run on channel : 1 (SN 22398)
User :
CE vs. WE compliance from -10 V to 10 V
Electrode connection : standard
Ewe ctrl range : min = -1.00 V, max = 1.00 V
Safety Limits :
	Ewe min = -2.00 V
	Ewe max = 2.00 V
	|I| = 50.000 mA
	for t > 10 ms
Acquisition started on : 11/21/2018 11:33:11
Technique started on : 11/21/2018 11:33:11
Saved on :
	File : C003C-20ppb-B_C01.mpr
	Directory : \\ECCOMPUTER\Users\Lab User\Google Drive\Electrochemical Data\EC-Lab\Data\FREDsense\Tim\2018.11.21 - EC comparison to High Throughput\
	Host : 172.16.1.30
Device : SP-50 (SN 0301030103010301)
Address : USB
EC-Lab for windows v11.02 (software)
Internet server v11.02 (firmware)
Command interpretor v11.02 (firmware)
Electrode material : Au/Pd
Initial state :
Electrolyte : NaCl (0.2M)
Comments : Fe(CN)63-/Fe(CN)64- 5.10-3 M
Reference electrode : SCE Saturated Calomel Electrode (0.241 V)
Electrode surface area : 0.001 cm²
Characteristic mass : 0.001 g
Equivalent Weight : 0.000 g/eq.
Density : 0.000 g/cm3
Cycle Definition : Charge/Discharge alternance
Ei (V)              -0.100
vs.                 Ref
dE/dt               50.000
dE/dt unit          mV/s
E1 (V)              0.300
vs.                 Ref
Step percent        50
N                   10
E range min (V)     -1.000
E range max (V)     1.000
I Range             Auto
I Range min         Unset
I Range max         Unset
I Range init        Unset
Bandwidth           5
E2 (V)              -0.200
vs.                 Ref
nc cycles           2
Reverse Scan        1
Ef (V)              0.000
vs.                 Eoc

mode	ox/red	error	control changes	counter inc.	time/s	control/V	Ewe/V	<I>/mA	cycle number	(Q-Qo)/C	P/W
2	1	0	1	0	0.000000000000000E+000	-0.0984851	-0.098793	-8.06846e-05	1	0.0000000E+000	7.97107e-09
2	1	0	1	0	0.4865	-0.0741592	-0.0743889	4.0553e-05	1	1.36461e-08	-3.01669e-09
2	1	0	1	0	0.9465	-0.0511582	-0.0514033	5.46665e-05	1	3.71657e-08	-2.81004e-09
2	1	0	1	0	1.4065	-0.0281573	-0.0284198	6.96579e-05	1	6.67561e-08	-1.97966e-09
2	1	0	1	0	1.8665	-0.00515635	-0.00539706	0.000114901	1	1.08618e-07	-6.20126e-10
2	1	0	1	0	2.3265	0.0178446	0.0176564	0.000277616	1	1.92588e-07	4.90169e-09
2	1	0	1	0	2.7865	0.0408455	0.0406378	0.000761041	1	4.16645e-07	3.0927e-08
2	1	0	1	0	3.2465	0.0638464	0.0636859	0.00156751	1	9.51259e-07	9.9828e-08
2	1	0	1	0	3.7065	0.0868473	0.0866938	0.002013	1	1.80213e-06	1.74515e-07
2	1	0	1	0	4.1665	0.109848	0.109647	0.00189338	1	2.71537e-06	2.07603e-07
2	1	0	1	0	4.6265	0.132849	0.132663	0.00163689	1	3.52763e-06	2.17155e-07
2	1	0	0	0	5.0867	0.15585	0.155677	0.00143813	1	4.23381e-06	2.23884e-07
2	1	0	0	0	5.5467	0.178851	0.178671	0.00130136	1	4.86383e-06	2.32515e-07
2	1	0	0	0	6.0067	0.201852	0.20166	0.0012049	1	5.44057e-06	2.42979e-07
2	1	0	0	0	6.4667	0.224853	0.224671	0.00113917	1	5.98034e-06	2.55938e-07
2	1	0	0	0	6.9267	0.247854	0.247685	0.00108926	1	6.49335e-06	2.69794e-07
2	1	0	0	0	7.3867	0.270855	0.270704	0.00105565	1	6.98774e-06	2.85769e-07
2	1	0	0	0	7.8467	0.293856	0.29372	0.0010259	1	7.4672e-06	3.01328e-07
2	0	0	1	0	8.2953	0.283705	0.283552	0.000806784	1	7.87154e-06	2.28765e-07
2	0	0	1	0	8.7553	0.260704	0.260536	0.000722726	1	8.2199e-06	1.88296e-07
2	0	0	1	0	9.2153	0.237703	0.237537	0.000666389	1	8.53796e-06	1.58292e-07
2	0	0	1	0	9.6753	0.214702	0.214538	0.000624833	1	8.83391e-06	1.3405e-07
2	0	0	1	0	10.1353	0.191702	0.19147	0.00058357	1	9.11084e-06	1.11736e-07
2	0	0	1	0	10.5953	0.168701	0.168512	0.000544103	1	9.36932e-06	9.16877e-08
2	0	0	0	0	11.0555	0.1457	0.145507	0.000494753	1	9.60768e-06	7.19901e-08
2	0	0	0	0	11.5155	0.122699	0.122463	0.000423622	1	9.81916e-06	5.18781e-08
2	0	0	0	0	11.9755	0.0996979	0.0995092	0.000276526	1	9.9835e-06	2.75169e-08
2	0	0	0	0	12.4355	0.0766969	0.0765162	-7.74175e-05	1	1.00403e-05	-5.92369e-09
2	0	0	0	0	12.8955	0.053696	0.0534786	-0.000785905	1	9.85323e-06	-4.20291e-08
2	0	0	0	0	13.3555	0.0306951	0.0304782	-0.00145488	1	9.31709e-06	-4.4342e-08
2	0	0	0	0	13.8155	0.00769417	0.00744591	-0.00144227	1	8.62534e-06	-1.0739e-08
2	0	0	0	0	14.2755	-0.0153068	-0.0155429	-0.00112651	1	8.03252e-06	1.75092e-08
2	0	0	0	0	14.7355	-0.0383077	-0.0385561	-0.00088093	1	7.57404e-06	3.39652e-08
2	0	0	0	0	15.1955	-0.0613086	-0.0615078	-0.000721391	1	7.20718e-06	4.43712e-08
2	0	0	0	0	15.6555	-0.0843096	-0.0845199	-0.000618027	1	6.89917e-06	5.22356e-08
2	0	0	1	0	16.1157	-0.107311	-0.107525	-0.000547632	1	6.6311e-06	5.88839e-08
2	0	0	1	0	16.5757	-0.130311	-0.130527	-0.000491913	1	6.39187e-06	6.4208e-08
2	0	0	1	0	17.0357	-0.153312	-0.153518	-0.000451016	1	6.17422e-06	6.92391e-08
2	0	0	1	0	17.4957	-0.176313	-0.176547	-0.000419544	1	5.97304e-06	7.40693e-08
2	0	0	1	0	17.9557	-0.199314	-0.199556	-0.000398011	1	5.78408e-06	7.94256e-08
2	1	0	0	1	18.4051	-0.178213	-0.178392	-0.00022958	1	5.6667e-06	4.09552e-08
2	1	0	0	1	18.8651	-0.155212	-0.155443	-0.000189601	1	5.57272e-06	2.94723e-08
2	1	0	0	1	19.3251	-0.132212	-0.132344	-0.00015822	1	5.49435e-06	2.09395e-08
2	1	0	0	1	19.7851	-0.109211	-0.109387	-0.000135802	1	5.42805e-06	1.4855e-08
2	1	0	1	1	20.2453	-0.0862097	-0.0864228	-0.000116301	2	5.37159e-06	1.00511e-08
2	1	0	1	1	20.7053	-0.0632087	-0.0634425	-9.68444e-05	2	5.3238e-06	6.14405e-09
2	1	0	1	1	21.1653	-0.0402078	-0.0404155	-7.77161e-05	2	5.28486e-06	3.14094e-09
2	1	0	1	1	21.6253	-0.0172068	-0.0174607	-4.11305e-05	2	5.25816e-06	7.18165e-10
2	1	0	1	1	22.0853	0.00579409	0.00563097	5.45835e-05	2	5.25872e-06	3.07358e-10
2	1	0	1	1	22.5453	0.028795	0.0286484	0.000344599	2	5.34043e-06	9.87221e-09
2	1	0	1	1	23.0053	0.0517959	0.0516414	0.000996989	2	5.63589e-06	5.14859e-08
2	1	0	1	1	23.4653	0.0747969	0.0746133	0.00170615	2	6.2706e-06	1.27302e-07
2	1	0	1	1	23.9253	0.0977978	0.0976614	0.00187964	2	7.12082e-06	1.83569e-07
2	1	0	1	1	24.3853	0.120799	0.120601	0.0016644	2	7.94286e-06	2.00729e-07
2	1	0	1	1	24.8453	0.1438	0.143646	0.0014236	2	8.65226e-06	2.04495e-07
2	1	0	0	1	25.3055	0.166801	0.166616	0.00125493	2	9.26765e-06	2.09092e-07
2	1	0	0	1	25.7655	0.189801	0.189642	0.00113292	2	9.81663e-06	2.14848e-07
2	1	0	0	1	26.2255	0.212802	0.212639	0.00105097	2	1.03192e-05	2.23478e-07
2	1	0	0	1	26.6855	0.235803	0.235616	0.000989517	2	1.07889e-05	2.33147e-07
2	1	0	0	1	27.1455	0.258804	0.258644	0.000941993	2	1.12337e-05	2.43641e-07
2	1	0	0	1	27.6055	0.281805	0.281654	0.000913363	2	1.16611e-05	2.57253e-07
2	0	0	0	1	28.0551	0.295706	0.295433	0.000771124	2	1.20588e-05	2.27815e-07
2	0	0	0	1	28.5151	0.272705	0.272466	0.000672386	2	1.23865e-05	1.83203e-07
2	0	0	0	1	28.9751	0.249704	0.249471	0.000620233	2	1.26821e-05	1.5473e-07
2	0	0	0	1	29.4351	0.226703	0.226452	0.00057771	2	1.29562e-05	1.30823e-07
2	0	0	0	1	29.8951	0.203702	0.203452	0.000539618	2	1.32127e-05	1.09787e-07
2	0	0	0	1	30.3551	0.180701	0.180473	0.000505482	2	1.34524e-05	9.1226e-08
2	0	0	0	1	30.8151	0.1577	0.157509	0.000465543	2	1.36748e-05	7.3327e-08
2	0	0	1	1	31.2753	0.134699	0.134458	0.000412454	2	1.38765e-05	5.54578e-08
2	0	0	1	1	31.7353	0.111698	0.111434	0.000318801	2	1.40464e-05	3.55251e-08
2	0	0	1	1	32.1953	0.0886974	0.0885104	0.000106159	2	1.41509e-05	9.39615e-09
2	0	0	1	1	32.6553	0.0656965	0.0654813	-0.000395116	2	1.4098e-05	-2.58727e-08
2	0	0	1	1	33.1153	0.0426956	0.0425169	-0.00118906	2	1.37344e-05	-5.0555e-08
2	0	0	1	1	33.5753	0.0196946	0.0195165	-0.00158521	2	1.30666e-05	-3.09378e-08
2	0	0	1	1	34.0353	-0.00330628	-0.00354016	-0.00136768	2	1.23743e-05	4.84182e-09
2	0	0	1	1	34.4953	-0.0263072	-0.0265459	-0.00106453	2	1.18175e-05	2.82588e-08
2	0	0	1	1	34.9553	-0.0493081	-0.0495114	-0.000856617	2	1.13783e-05	4.24123e-08
2	0	0	1	1	35.4153	-0.0723091	-0.0725225	-0.000725293	2	1.10154e-05	5.26e-08
2	0	0	1	1	35.8753	-0.09531	-0.0955431	-0.00063483	2	1.07031e-05	6.06537e-08
2	0	0	0	1	36.3355	-0.118311	-0.118551	-0.000568933	2	1.04261e-05	6.74476e-08
2	0	0	0	1	36.7955	-0.141312	-0.141527	-0.000518404	2	1.01755e-05	7.33681e-08
2	0	0	0	1	37.2555	-0.164313	-0.164567	-0.000477796	2	9.94536e-06	7.86293e-08
2	0	0	0	1	37.7155	-0.187314	-0.187578	-0.000450343	2	9.73093e-06	8.44743e-08
2	1	0	1	0	38.1649	-0.190214	-0.190396	-0.000298917	2	9.55598e-06	5.69124e-08
2	1	0	1	0	38.6249	-0.167213	-0.167398	-0.000243268	2	9.43381e-06	4.07227e-08
2	1	0	1	0	39.0849	-0.144212	-0.144425	-0.000208716	2	9.33105e-06	3.01438e-08
2	1	0	1	0	39.5449	-0.121211	-0.121392	-0.000182864	2	9.24263e-06	2.21983e-08
2	1	0	0	0	40.0051	-0.0982101	-0.0983588	-0.000158562	3	9.16587e-06	1.5596e-08
2	1	0	0	0	40.4651	-0.0752092	-0.0754145	-0.000137853	3	9.09886e-06	1.03961e-08
2	1	0	0	0	40.9251	-0.0522083	-0.0524374	-0.000117112	3	9.04096e-06	6.14104e-09
2	1	0	0	0	41.3851	-0.0292073	-0.0293818	-8.95986e-05	3	8.99365e-06	2.63256e-09
2	1	0	0	0	41.8451	-0.0062064	-0.0064343	-3.47273e-05	3	8.96436e-06	2.23446e-10
2	1	0	0	0	42.3051	0.0167945	0.0165768	0.000132681	3	8.98177e-06	2.19942e-09
2	1	0	0	0	42.7651	0.0397955	0.0396133	0.000578498	3	9.1324e-06	2.29162e-08
2	1	0	0	0	43.2251	0.0627964	0.0626445	0.0013245	3	9.56663e-06	8.29724e-08
2	1	0	0	0	43.6851	0.0857973	0.0855877	0.00182795	3	1.0315e-05	1.5645e-07
2	1	0	0	0	44.1451	0.108798	0.108643	0.0017733	3	1.11607e-05	1.92657e-07
2	1	0	0	0	44.6051	0.131799	0.131671	0.00152618	3	1.19218e-05	2.00954e-07
2	1	0	1	0	45.0653	0.1548	0.154653	0.00131819	3	1.25747e-05	2.03861e-07
2	1	0	1	0	45.5253	0.177801	0.17768	0.00117191	3	1.31468e-05	2.08224e-07
2	1	0	1	0	45.9853	0.200802	0.200589	0.00106876	3	1.36622e-05	2.14382e-07
2	1	0	1	0	46.4453	0.223803	0.223661	0.00099589	3	1.41376e-05	2.22742e-07
2	1	0	1	0	46.9053	0.246804	0.246662	0.000937693	3	1.4583e-05	2.31293e-07
2	1	0	1	0	47.3653	0.269805	0.269645	0.00089507	3	1.50052e-05	2.41352e-07
2	1	0	1	0	47.8253	0.292806	0.292651	0.000867954	3	1.54115e-05	2.54008e-07
2	0	0	1	0	48.2749	0.284705	0.2845	0.00068374	3	1.57565e-05	1.94524e-07
2	0	0	1	0	48.7349	0.261704	0.261527	0.000622008	3	1.60549e-05	1.62672e-07
2	0	0	1	0	49.1949	0.238703	0.238433	0.000576435	3	1.63292e-05	1.37441e-07
2	0	0	1	0	49.6549	0.215703	0.215529	0.000539977	3	1.6585e-05	1.16381e-07
2	0	0	1	0	50.1149	0.192702	0.192523	0.000504606	3	1.68241e-05	9.71486e-08
2	0	0	1	0	50.5749	0.169701	0.169503	0.000466477	3	1.70466e-05	7.90692e-08
2	0	0	0	0	51.0351	0.1467	0.146511	0.000422907	3	1.72508e-05	6.19605e-08
2	0	0	0	0	51.4951	0.123699	0.123468	0.000356637	3	1.74307e-05	4.40333e-08
2	0	0	0	0	51.9551	0.100698	0.100455	0.00022597	3	1.75681e-05	2.26998e-08
2	0	0	0	0	52.4151	0.077697	0.0774915	-9.4541e-05	3	1.7608e-05	-7.32612e-09
2	0	0	0	0	52.8751	0.0546961	0.0544879	-0.000764037	3	1.7423e-05	-4.16307e-08
2	0	0	0	0	53.3351	0.0316951	0.0314715	-0.00147736	3	1.6892e-05	-4.64948e-08
2	0	0	0	0	53.7951	0.00869421	0.00848483	-0.00154583	3	1.61692e-05	-1.31161e-08
2	0	0	0	0	54.2551	-0.0143067	-0.0145665	-0.00124027	3	1.55247e-05	1.80665e-08
2	0	0	0	0	54.7151	-0.0373077	-0.0375447	-0.000977983	3	1.50175e-05	3.67181e-08
2	0	0	0	0	55.1751	-0.0603086	-0.0605378	-0.000812984	3	1.46074e-05	4.92162e-08
2	0	0	0	0	55.6351	-0.0833095	-0.0835149	-0.000701439	3	1.426e-05	5.85806e-08
2	0	0	1	0	56.0953	-0.10631	-0.106548	-0.000621349	3	1.39555e-05	6.62037e-08
2	0	0	1	0	56.5553	-0.129311	-0.129561	-0.000565377	3	1.36821e-05	7.32511e-08
2	0	0	1	0	57.0153	-0.152312	-0.152541	-0.000516828	3	1.34326e-05	7.88373e-08
2	0	0	1	0	57.4753	-0.175313	-0.175519	-0.000482348	3	1.32018e-05	8.46612e-08
2	0	0	1	0	57.9353	-0.198314	-0.198536	-0.000456099	3	1.29852e-05	9.05523e-08
2	1	0	0	1	58.3847	-0.179213	-0.179391	-0.000284416	3	1.28399e-05	5.10216e-08
2	1	0	0	1	58.8447	-0.156213	-0.156468	-0.00024192	3	1.27207e-05	3.78529e-08
2	1	0	0	1	59.3047	-0.133212	-0.133403	-0.000211943	3	1.26181e-05	2.82739e-08
2	1	0	0	1	59.7647	-0.110211	-0.110437	-0.000184069	3	1.25289e-05	2.0328e-08
2	1	0	1	1	60.2249	-0.0872097	-0.0873759	-0.000163529	3	1.24504e-05	1.42885e-08
2	1	0	1	1	60.6849	-0.0642088	-0.0644475	-0.000142154	3	1.23815e-05	9.16148e-09
2	1	0	0	1	60.8874	-0.0540833	-0.0542777	-0.000130989	3	1.23541e-05	7.10977e-09