File: AutoAnalysis Examples/EC/C003B-10ppb-B_C01.mpt
EC-Lab ASCII FILE
Nb header lines : 59

Cyclic Voltammetry

Run on channel : 1 (SN 22398)
User :
CE vs. WE compliance from -10 V to 10 V
Electrode connection : standard
Ewe ctrl range : min = -1.00 V, max = 1.00 V
Safety Limits :
	Ewe min = -2.00 V
	Ewe max = 2.00 V
	|I| = 50.000 mA
	for t > 10 ms
Acquisition started on : 11/21/2018 11:15:02
Technique started on : 11/21/2018 11:15:02
Saved on :
	File : C003B-10ppb-B_C01.mpr
	Directory : \\ECCOMPUTER\Users\Lab User\Google Drive\Electrochemical Data\EC-Lab\Data\FREDsense\Tim\2018.11.21 - EC comparison to High Throughput\
	Host : 172.16.1.30
Device : SP-50 (SN 0301030103010301)
Address : USB
EC-Lab for windows v11.02 (software)
Internet server v11.02 (firmware)
Command interpretor v11.02 (firmware)
Electrode material : Au/Pd
Initial state :
Electrolyte : NaCl (0.2M)
Comments : Fe(CN)63-/Fe(CN)64- 5.10-3 M
Reference electrode : SCE Saturated Calomel Electrode (0.241 V)
Electrode surface area : 0.001 cm²
Characteristic mass : 0.001 g
Equivalent Weight : 0.000 g/eq.
Density : 0.000 g/cm3
Cycle Definition : Charge/Discharge alternance
Ei (V)              -0.100
vs.                 Ref
dE/dt               50.000
dE/dt unit          mV/s
E1 (V)              0.300
vs.                 Ref
Step percent        50
N                   10
E range min (V)     -1.000
E range max (V)     1.000
I Range             Auto
I Range min         Unset
I Range max         Unset
I Range init        Unset
Bandwidth           5
E2 (V)              -0.200
vs.                 Ref
nc cycles           2
Reverse Scan        1
Ef (V)              0.000
vs.                 Eoc

mode	ox/red	error	control changes	counter inc.	time/s	control/V	Ewe/V	<I>/mA	cycle number	(Q-Qo)/C	P/W
2	1	0	1	0	0.000000000000000E+000	-0.0984851	-0.0987203	-0.00010294	1	0.0000000E+000	1.01623e-08
2	1	0	1	0	0.4865	-0.0741592	-0.0743523	4.76009e-05	1	1.87076e-08	-3.53924e-09
2	1	0	1	0	0.9465	-0.0511582	-0.0513804	5.89323e-05	1	4.46373e-08	-3.02797e-09
2	1	0	1	0	1.4065	-0.0281573	-0.0283651	7.09862e-05	1	7.52559e-08	-2.01353e-09
2	1	0	1	0	1.8665	-0.00515635	-0.0053498	9.87557e-05	1	1.14602e-07	-5.28323e-10
2	1	0	1	0	2.3265	0.0178446	0.017709	0.000207145	1	1.81901e-07	3.66833e-09
2	1	0	1	0	2.7865	0.0408455	0.0406914	0.000532169	1	3.42286e-07	2.16547e-08
2	1	0	1	0	3.2465	0.0638464	0.0637162	0.0010795	1	7.13038e-07	6.87818e-08
2	1	0	1	0	3.7065	0.0868473	0.0866658	0.00136995	1	1.29631e-06	1.18728e-07
2	1	0	1	0	4.1665	0.109848	0.109704	0.0012722	1	1.91374e-06	1.39566e-07
2	1	0	1	0	4.6265	0.132849	0.132677	0.00109992	1	2.45942e-06	1.45934e-07
2	1	0	0	0	5.0867	0.15585	0.155699	0.000970749	1	2.93473e-06	1.51145e-07
2	1	0	0	0	5.5467	0.178851	0.178681	0.000883618	1	3.36134e-06	1.57886e-07
2	1	0	0	0	6.0067	0.201852	0.20166	0.000829796	1	3.75598e-06	1.67336e-07
2	1	0	0	0	6.4667	0.224853	0.224743	0.000792628	1	4.12986e-06	1.78137e-07
2	1	0	0	0	6.9267	0.247854	0.247693	0.000770484	1	4.49027e-06	1.90844e-07
2	1	0	0	0	7.3867	0.270855	0.270697	0.000757086	1	4.84257e-06	2.04941e-07
2	1	0	0	0	7.8467	0.293856	0.29369	0.00075294	1	5.19084e-06	2.21131e-07
2	0	0	1	0	8.2953	0.283705	0.283478	0.000531994	1	5.47249e-06	1.50809e-07
2	0	0	1	0	8.7553	0.260704	0.260473	0.000458019	1	5.69749e-06	1.19302e-07
2	0	0	1	0	9.2153	0.237703	0.237495	0.000413614	1	5.8966e-06	9.82313e-08
2	0	0	1	0	9.6753	0.214702	0.214498	0.000381729	1	6.07821e-06	8.188e-08
2	0	0	1	0	10.1353	0.191702	0.191509	0.000351347	1	6.24575e-06	6.72861e-08
2	0	0	1	0	10.5953	0.168701	0.168486	0.000323484	1	6.40027e-06	5.45025e-08
2	0	0	0	0	11.0555	0.1457	0.145419	0.000292086	1	6.54125e-06	4.24748e-08
2	0	0	0	0	11.5155	0.122699	0.122463	0.000243531	1	6.66403e-06	2.98236e-08
2	0	0	0	0	11.9755	0.0996979	0.0994764	0.000140736	1	6.75482e-06	1.39999e-08
2	0	0	0	0	12.4355	0.0766969	0.0764653	-0.000109552	1	6.76943e-06	-8.37691e-09
2	0	0	0	0	12.8955	0.053696	0.0534489	-0.000606568	1	6.61147e-06	-3.24204e-08
2	0	0	0	0	13.3555	0.0306951	0.0305354	-0.00102391	1	6.21908e-06	-3.12656e-08
2	0	0	0	0	13.8155	0.00769417	0.00747029	-0.000960633	1	5.74736e-06	-7.17621e-09
2	0	0	0	0	14.2755	-0.0153068	-0.0154973	-0.000741379	1	5.35605e-06	1.14894e-08
2	0	0	0	0	14.7355	-0.0383077	-0.0385423	-0.000589029	1	5.05198e-06	2.27026e-08
2	0	0	0	0	15.1955	-0.0613086	-0.0615354	-0.000492208	1	4.80401e-06	3.02882e-08
2	0	0	0	0	15.6555	-0.0843096	-0.0845231	-0.00043035	1	4.59144e-06	3.63746e-08
2	0	0	1	0	16.1157	-0.107311	-0.10756	-0.000389118	1	4.40291e-06	4.18533e-08
2	0	0	1	0	16.5757	-0.130311	-0.130596	-0.000354537	1	4.23165e-06	4.63011e-08
2	0	0	1	0	17.0357	-0.153312	-0.153552	-0.000332051	1	4.07293e-06	5.09871e-08
2	0	0	1	0	17.4957	-0.176313	-0.17654	-0.000315658	1	3.92335e-06	5.57263e-08
2	0	0	1	0	17.9557	-0.199314	-0.199535	-0.000304857	1	3.7799e-06	6.08296e-08
2	1	0	0	1	18.4051	-0.178213	-0.178444	-0.000136601	1	3.70605e-06	2.43755e-08
2	1	0	0	1	18.8651	-0.155212	-0.155458	-0.000106529	1	3.65269e-06	1.65609e-08
2	1	0	0	1	19.3251	-0.132212	-0.132437	-8.23193e-05	1	3.61135e-06	1.09021e-08
2	1	0	0	1	19.7851	-0.109211	-0.109405	-6.65436e-05	1	3.57887e-06	7.28022e-09
2	1	0	1	1	20.2453	-0.0862097	-0.0864377	-5.21475e-05	2	3.55345e-06	4.50751e-09
2	1	0	1	1	20.7053	-0.0632087	-0.063415	-3.73751e-05	2	3.53408e-06	2.37014e-09
2	1	0	1	1	21.1653	-0.0402078	-0.040406	-2.67644e-05	2	3.52054e-06	1.08144e-09
2	1	0	1	1	21.6253	-0.0172068	-0.017414	-3.16177e-06	2	3.51473e-06	5.50592e-11
2	1	0	1	1	22.0853	0.00579409	0.00560765	5.71553e-05	2	3.52598e-06	3.20507e-10
2	1	0	1	1	22.5453	0.028795	0.0285731	0.000243447	2	3.5887e-06	6.95603e-09
2	1	0	1	1	23.0053	0.0517959	0.0516743	0.000671997	2	3.79046e-06	3.4725e-08
2	1	0	1	1	23.4653	0.0747969	0.0746334	0.0011382	2	4.21611e-06	8.49476e-08
2	1	0	1	1	23.9253	0.0977978	0.0976137	0.00124037	2	4.7801e-06	1.21077e-07
2	1	0	1	1	24.3853	0.120799	0.120592	0.00108709	2	5.31994e-06	1.31095e-07
2	1	0	1	1	24.8453	0.1438	0.143646	0.000930746	2	5.78401e-06	1.33698e-07
2	1	0	0	1	25.3055	0.166801	0.16662	0.000819716	2	6.18648e-06	1.36581e-07
2	1	0	0	1	25.7655	0.189801	0.189686	0.00074378	2	6.54647e-06	1.41084e-07
2	1	0	0	1	26.2255	0.212802	0.212595	0.000694247	2	6.87778e-06	1.47593e-07
2	1	0	0	1	26.6855	0.235803	0.235565	0.000658269	2	7.18964e-06	1.55065e-07
2	1	0	0	1	27.1455	0.258804	0.258683	0.000638003	2	7.4887e-06	1.6504e-07
2	1	0	0	1	27.6055	0.281805	0.281624	0.000629319	2	7.78082e-06	1.77231e-07
2	0	0	0	1	28.0551	0.295706	0.295523	0.000499155	2	8.05494e-06	1.47512e-07
2	0	0	0	1	28.5151	0.272705	0.272487	0.000413994	2	8.26082e-06	1.12808e-07
2	0	0	0	1	28.9751	0.249704	0.249465	0.000373538	2	8.43999e-06	9.31846e-08
2	0	0	0	1	29.4351	0.226703	0.226459	0.000341247	2	8.60277e-06	7.72784e-08
2	0	0	0	1	29.8951	0.203702	0.203455	0.000315477	2	8.75286e-06	6.41854e-08
2	0	0	0	1	30.3551	0.180701	0.180471	0.000291637	2	8.89157e-06	5.26321e-08
2	0	0	0	1	30.8151	0.1577	0.157457	0.000264642	2	9.01875e-06	4.16696e-08
2	0	0	1	1	31.2753	0.134699	0.134486	0.000231407	2	9.1323e-06	3.1121e-08
2	0	0	1	1	31.7353	0.111698	0.111487	0.00016729	2	9.22464e-06	1.86506e-08
2	0	0	1	1	32.1953	0.0886974	0.0884861	2.08683e-05	2	9.27231e-06	1.84655e-09
2	0	0	1	1	32.6553	0.0656965	0.0654845	-0.000331579	2	9.21008e-06	-2.17133e-08
2	0	0	1	1	33.1153	0.0426956	0.0424533	-0.000861731	2	8.93428e-06	-3.65834e-08
2	0	0	1	1	33.5753	0.0196946	0.0195366	-0.00106819	2	8.4689e-06	-2.08688e-08
2	0	0	1	1	34.0353	-0.00330628	-0.0035391	-0.000895992	2	8.01031e-06	3.17101e-09
2	0	0	1	1	34.4953	-0.0263072	-0.0265618	-0.000699086	2	7.64538e-06	1.8569e-08
2	0	0	1	1	34.9553	-0.0493081	-0.0494987	-0.000575946	2	7.35339e-06	2.85086e-08
2	0	0	1	1	35.4153	-0.0723091	-0.0726052	-0.000496495	2	7.10726e-06	3.60481e-08
2	0	0	1	1	35.8753	-0.09531	-0.0955516	-0.00044192	2	6.89129e-06	4.22262e-08
2	0	0	0	1	36.3355	-0.118311	-0.118528	-0.000404388	2	6.69643e-06	4.79312e-08
2	0	0	0	1	36.7955	-0.141312	-0.141483	-0.000372842	2	6.51722e-06	5.27506e-08
2	0	0	0	1	37.2555	-0.164313	-0.164554	-0.000350842	2	6.34978e-06	5.77324e-08
2	0	0	0	1	37.7155	-0.187314	-0.187566	-0.000336163	2	6.19086e-06	6.30528e-08
2	1	0	1	0	38.1649	-0.190214	-0.190376	-0.000185593	2	6.06614e-06	3.53324e-08
2	1	0	1	0	38.6249	-0.167213	-0.16743	-0.000142672	2	5.99302e-06	2.38876e-08
2	1	0	1	0	39.0849	-0.144212	-0.144387	-0.000115861	2	5.93507e-06	1.67289e-08
2	1	0	1	0	39.5449	-0.121211	-0.121474	-9.4949e-05	2	5.88772e-06	1.15338e-08
2	1	0	0	0	40.0051	-0.0982101	-0.0984425	-7.99399e-05	3	5.8487e-06	7.86949e-09
2	1	0	0	0	40.4651	-0.0752092	-0.075477	-6.61797e-05	3	5.81652e-06	4.99505e-09
2	1	0	0	0	40.9251	-0.0522083	-0.0524416	-4.99536e-05	3	5.79048e-06	2.61965e-09
2	1	0	0	0	41.3851	-0.0292073	-0.0294274	-3.57518e-05	3	5.77118e-06	1.05208e-09
2	1	0	0	0	41.8451	-0.0062064	-0.00644915	1.90846e-07	3	5.76298e-06	-1.2308e-12
2	1	0	0	0	42.3051	0.0167945	0.016616	0.00010414	3	5.78371e-06	1.73038e-09
2	1	0	0	0	42.7651	0.0397955	0.0396758	0.000388459	3	5.8887e-06	1.54124e-08
2	1	0	0	0	43.2251	0.0627964	0.0626286	0.000875193	3	6.17739e-06	5.48121e-08
2	1	0	0	0	43.6851	0.0857973	0.0856004	0.00119653	3	6.67042e-06	1.02423e-07
2	1	0	0	0	44.1451	0.108798	0.1086	0.00115434	3	7.22258e-06	1.25361e-07
2	1	0	0	0	44.6051	0.131799	0.131608	0.000987103	3	7.71611e-06	1.2991e-07
2	1	0	1	0	45.0653	0.1548	0.15464	0.000850069	3	8.13837e-06	1.31455e-07
2	1	0	1	0	45.5253	0.177801	0.177628	0.000757565	3	8.50809e-06	1.34564e-07
2	1	0	1	0	45.9853	0.200802	0.200628	0.000691378	3	8.84195e-06	1.3871e-07
2	1	0	1	0	46.4453	0.223803	0.223595	0.000649103	3	9.15111e-06	1.45136e-07
2	1	0	1	0	46.9053	0.246804	0.246591	0.000616727	3	9.4429e-06	1.52079e-07
2	1	0	1	0	47.3653	0.269805	0.269639	0.000598342	3	9.72304e-06	1.61336e-07
2	1	0	1	0	47.8253	0.292806	0.292706	0.000591131	3	9.99715e-06	1.73028e-07
2	0	0	1	0	48.2749	0.284705	0.284503	0.000419231	3	1.02199e-05	1.19273e-07
2	0	0	1	0	48.7349	0.261704	0.261496	0.000369942	3	1.03994e-05	9.67383e-08
2	0	0	1	0	49.1949	0.238703	0.238487	0.000338622	3	1.05605e-05	8.0757e-08
2	0	0	1	0	49.6549	0.215703	0.21546	0.000310038	3	1.07085e-05	6.68009e-08
2	0	0	1	0	50.1149	0.192702	0.192477	0.000286865	3	1.08451e-05	5.52148e-08
2	0	0	1	0	50.5749	0.169701	0.169484	0.000263357	3	1.09709e-05	4.46348e-08
2	0	0	0	0	51.0351	0.1467	0.146533	0.00023432	3	1.10849e-05	3.43356e-08
2	0	0	0	0	51.4951	0.123699	0.123442	0.000192694	3	1.11831e-05	2.37865e-08
2	0	0	0	0	51.9551	0.100698	0.100513	0.000100962	3	1.12528e-05	1.0148e-08
2	0	0	0	0	52.4151	0.077697	0.0774767	-0.000118306	3	1.12557e-05	-9.16596e-09
2	0	0	0	0	52.8751	0.0546961	0.0545303	-0.000577703	3	1.11031e-05	-3.15023e-08
2	0	0	0	0	53.3351	0.0316951	0.0314471	-0.00102285	3	1.07217e-05	-3.21657e-08
2	0	0	0	0	53.7951	0.00869421	0.00850391	-0.00101489	3	1.02353e-05	-8.63056e-09
2	0	0	0	0	54.2551	-0.0143067	-0.0145008	-0.000807389	3	9.81463e-06	1.17078e-08
2	0	0	0	0	54.7151	-0.0373077	-0.0375818	-0.000647486	3	9.48187e-06	2.43337e-08
2	0	0	0	0	55.1751	-0.0603086	-0.0605452	-0.000547858	3	9.20777e-06	3.31702e-08
2	0	0	0	0	55.6351	-0.0833095	-0.0835563	-0.00048147	3	8.97109e-06	4.02298e-08
2	0	0	1	0	56.0953	-0.10631	-0.106566	-0.000433924	3	8.75989e-06	4.62417e-08
2	0	0	1	0	56.5553	-0.129311	-0.12959	-0.000399915	3	8.5672e-06	5.18251e-08
2	0	0	1	0	57.0153	-0.152312	-0.152542	-0.000373423	3	8.38852e-06	5.69626e-08
2	0	0	1	0	57.4753	-0.175313	-0.17556	-0.000353982	3	8.22038e-06	6.21452e-08
2	0	0	1	0	57.9353	-0.198314	-0.198516	-0.000343057	3	8.0596e-06	6.81024e-08
2	1	0	0	1	58.3847	-0.179213	-0.179402	-0.000170886	3	7.96736e-06	3.06574e-08
2	1	0	0	1	58.8447	-0.156213	-0.156477	-0.000136094	3	7.89815e-06	2.12955e-08
2	1	0	0	1	59.3047	-0.133212	-0.133411	-0.000115151	3	7.84149e-06	1.53624e-08
2	1	0	0	1	59.7647	-0.110211	-0.110457	-9.68514e-05	3	7.79432e-06	1.06979e-08
2	1	0	1	1	60.2249	-0.0872097	-0.087431	-8.13601e-05	3	7.7548e-06	7.1134e-09
2	1	0	0	1	60.6274	-0.0670839	-0.0672536	-7.60786e-05	3	7.72559e-06	5.11656e-09