File: AutoAnalysis Examples/EC/C003B-0ppb-A_C01.mpt
EC-Lab ASCII FILE
Nb header lines : 59

Cyclic Voltammetry

Run on channel : 1 (SN 22398)
User :
CE vs. WE compliance from -10 V to 10 V
Electrode connection : standard
Ewe ctrl range : min = -1.00 V, max = 1.00 V
Safety Limits :
	Ewe min = -2.00 V
	Ewe max = 2.00 V
	|I| = 50.000 mA
	for t > 10 ms
Acquisition started on : 11/21/2018 10:14:11
Technique started on : 11/21/2018 10:14:11
Saved on :
	File : C003B-0ppb-A_C01.mpr
	Directory : \\ECCOMPUTER\Users\Lab User\Google Drive\Electrochemical Data\EC-Lab\Data\FREDsense\Tim\2018.11.21 - EC comparison to High Throughput\
	Host : 172.16.1.30
Device : SP-50 (SN 0301030103010301)
Address : USB
EC-Lab for windows v11.02 (software)
Internet server v11.02 (firmware)
Command interpretor v11.02 (firmware)
Electrode material : Au/Pd
Initial state :
Electrolyte : NaCl (0.2M)
Comments : Fe(CN)63-/Fe(CN)64- 5.10-3 M
Reference electrode : SCE Saturated Calomel Electrode (0.241 V)
Electrode surface area : 0.001 cm²
Characteristic mass : 0.001 g
Equivalent Weight : 0.000 g/eq.
Density : 0.000 g/cm3
Cycle Definition : Charge/Discharge alternance
Ei (V)              -0.100
vs.                 Ref
dE/dt               50.000
dE/dt unit          mV/s
E1 (V)              0.300
vs.                 Ref
Step percent        50
N                   10
E range min (V)     -1.000
E range max (V)     1.000
I Range             Auto
I Range min         Unset
I Range max         Unset
I Range init        Unset
Bandwidth           5
E2 (V)              -0.200
vs.                 Ref
nc cycles           2
Reverse Scan        1
Ef (V)              0.000
vs.                 Eoc

mode	ox/red	error	control changes	counter inc.	time/s	control/V	Ewe/V	<I>/mA	cycle number	(Q-Qo)/C	P/W
2	1	0	0	0	0.000000000000000E+000	-0.0984786	-0.0985673	-6.54236e-05	1	0.0000000E+000	6.44863e-09
2	1	0	1	0	0.4867	-0.074153	-0.0743944	5.34918e-05	1	2.01434e-08	-3.97949e-09
2	1	0	1	0	0.9467	-0.0511524	-0.051325	6.68034e-05	1	4.98386e-08	-3.42869e-09
2	1	0	1	0	1.4067	-0.0281518	-0.0283638	7.9336e-05	1	8.43293e-08	-2.25027e-09
2	1	0	1	0	1.8667	-0.00515113	-0.00531984	0.00010385	1	1.26856e-07	-5.52466e-10
2	1	0	1	0	2.3267	0.0178495	0.017705	0.000195757	1	1.93048e-07	3.46588e-09
2	1	0	1	0	2.7867	0.0408501	0.0407108	0.000461936	1	3.36443e-07	1.88057e-08
2	1	0	1	0	3.2467	0.0638507	0.0637239	0.000898158	1	6.51147e-07	5.72342e-08
2	1	0	1	0	3.7067	0.0868513	0.08677	0.0010847	1	1.12471e-06	9.41191e-08
2	1	0	1	0	4.1667	0.109852	0.109732	0.00098133	1	1.60697e-06	1.07684e-07
2	1	0	1	0	4.6267	0.132853	0.132636	0.000850758	1	2.02838e-06	1.12841e-07
2	1	0	1	0	5.0867	0.155853	0.155711	0.000761396	1	2.39894e-06	1.18558e-07
2	1	0	1	0	5.5467	0.178854	0.178738	0.00070862	1	2.73716e-06	1.26657e-07
2	1	0	1	0	6.0067	0.201854	0.201713	0.00067346	1	3.05546e-06	1.35846e-07
2	1	0	1	0	6.4667	0.224855	0.22466	0.000654877	1	3.36201e-06	1.47125e-07
2	1	0	1	0	6.9267	0.247856	0.247777	0.000648108	1	3.66247e-06	1.60586e-07
2	1	0	1	0	7.3867	0.270856	0.27079	0.000644355	1	3.96109e-06	1.74485e-07
2	1	0	0	0	7.8469	0.293857	0.29373	0.000653817	1	4.26109e-06	1.92046e-07
2	0	0	0	0	8.2953	0.283707	0.283604	0.000417415	1	4.49367e-06	1.18381e-07
2	0	0	1	0	8.7555	0.260706	0.260592	0.000343843	1	4.66584e-06	8.96027e-08
2	0	0	1	0	9.2155	0.237705	0.237539	0.000304707	1	4.81338e-06	7.23799e-08
2	0	0	1	0	9.6755	0.214705	0.214597	0.000274611	1	4.94549e-06	5.89307e-08
2	0	0	1	0	10.1355	0.191704	0.191548	0.000250417	1	5.06588e-06	4.79668e-08
2	0	0	1	0	10.5955	0.168704	0.168488	0.00023087	1	5.17594e-06	3.88988e-08
2	0	0	1	0	11.0555	0.145703	0.145546	0.000202683	1	5.27549e-06	2.94997e-08
2	0	0	1	0	11.5155	0.122702	0.122542	0.00016965	1	5.3616e-06	2.07893e-08
2	0	0	1	0	11.9755	0.0997016	0.0995355	9.05349e-05	1	5.42342e-06	9.01144e-09
2	0	0	1	0	12.4355	0.076701	0.0765329	-0.000105973	1	5.42633e-06	-8.11043e-09
2	0	0	1	0	12.8955	0.0537004	0.0536226	-0.000505493	1	5.29072e-06	-2.71058e-08
2	0	0	1	0	13.3555	0.0306998	0.0305659	-0.000833567	1	4.96785e-06	-2.54788e-08
2	0	0	1	0	13.8155	0.00769921	0.00753473	-0.000758453	1	4.59009e-06	-5.71474e-09
2	0	0	1	0	14.2755	-0.0153014	-0.0155463	-0.000585129	1	4.2817e-06	9.0966e-09
2	0	0	1	0	14.7355	-0.038302	-0.0384355	-0.000467876	1	4.0408e-06	1.7983e-08
2	0	0	1	0	15.1955	-0.0613027	-0.0614741	-0.000399753	1	3.84154e-06	2.45745e-08
2	0	0	1	0	15.6555	-0.0843033	-0.0844809	-0.000354116	1	3.66829e-06	2.99161e-08
2	0	0	0	0	16.1157	-0.107304	-0.107467	-0.000320391	1	3.51243e-06	3.44313e-08
2	0	0	0	0	16.5757	-0.130304	-0.130532	-0.000298745	1	3.36895e-06	3.89957e-08
2	0	0	0	0	17.0357	-0.153305	-0.15347	-0.000283551	1	3.23436e-06	4.35164e-08
2	0	0	0	0	17.4957	-0.176306	-0.176496	-0.00027224	1	3.10583e-06	4.80492e-08
2	0	0	0	0	17.9557	-0.199306	-0.199515	-0.000270047	1	2.98074e-06	5.38784e-08
2	1	0	1	1	18.4051	-0.178206	-0.178375	-8.54582e-05	1	2.92986e-06	1.52436e-08
2	1	0	1	1	18.8651	-0.155205	-0.155332	-5.3905e-05	1	2.89979e-06	8.37319e-09
2	1	0	1	1	19.3251	-0.132205	-0.132359	-3.5909e-05	1	2.88068e-06	4.75289e-09
2	1	0	1	1	19.7851	-0.109204	-0.109341	-1.98189e-05	1	2.86934e-06	2.16701e-09
2	1	0	0	1	20.2353	-0.0867033	-0.0868143	-8.87783e-06	2	2.86409e-06	7.70722e-10
2	1	0	0	1	20.6953	-0.0637027	-0.0638679	1.54744e-06	2	2.86377e-06	-9.88315e-11
2	1	0	0	1	21.1553	-0.0407021	-0.0409458	1.09906e-05	2	2.86819e-06	-4.50019e-10
2	1	0	0	1	21.6153	-0.0177015	-0.0178637	3.14666e-05	2	2.87866e-06	-5.62112e-10
2	1	0	0	1	22.0753	0.00529915	0.00518973	7.65451e-05	2	2.90255e-06	3.97249e-10
2	1	0	0	1	22.5353	0.0282998	0.028186	0.000229835	2	2.96803e-06	6.47811e-09
2	1	0	0	1	22.9953	0.0513004	0.0511928	0.00058171	2	3.14815e-06	2.97793e-08
2	1	0	0	1	23.4553	0.074301	0.0742038	0.000954668	2	3.51082e-06	7.084e-08
2	1	0	0	1	23.9153	0.0973016	0.0971704	0.00100544	2	3.97545e-06	9.76993e-08
2	1	0	0	1	24.3753	0.120302	0.120126	0.000867684	2	4.40925e-06	1.04232e-07
2	1	0	0	1	24.8353	0.143303	0.143149	0.00074514	2	4.78026e-06	1.06666e-07
2	1	0	0	1	25.2953	0.166303	0.166175	0.000662946	2	5.10425e-06	1.10165e-07
2	1	0	0	1	25.7553	0.189304	0.189168	0.000611007	2	5.39731e-06	1.15583e-07
2	1	0	0	1	26.2153	0.212305	0.212162	0.000576516	2	5.6709e-06	1.22315e-07
2	1	0	0	1	26.6753	0.235305	0.235182	0.00055214	2	5.93056e-06	1.29853e-07
2	1	0	0	1	27.1353	0.258306	0.258148	0.000541199	2	6.18312e-06	1.3971e-07
2	1	0	1	1	27.5955	0.281306	0.281163	0.000542801	2	6.4337e-06	1.52616e-07
2	0	0	0	1	28.0449	0.296207	0.296022	0.000411219	2	6.67187e-06	1.2173e-07
2	0	0	0	1	28.5049	0.273206	0.273096	0.000321433	2	6.83603e-06	8.7782e-08
2	0	0	1	1	28.9651	0.250206	0.250026	0.000282906	2	6.97392e-06	7.0734e-08
2	0	0	1	1	29.4251	0.227205	0.226972	0.000255333	2	7.09673e-06	5.79533e-08
2	0	0	1	1	29.8851	0.204204	0.204093	0.000235666	2	7.20871e-06	4.80978e-08
2	0	0	1	1	30.3451	0.181204	0.181004	0.000215843	2	7.31135e-06	3.90684e-08
2	0	0	1	1	30.8051	0.158203	0.158071	0.000194592	2	7.40484e-06	3.07593e-08
2	0	0	1	1	31.2651	0.135203	0.135053	0.000168336	2	7.48782e-06	2.27342e-08
2	0	0	1	1	31.7251	0.112202	0.112049	0.000119735	2	7.55475e-06	1.34162e-08
2	0	0	1	1	32.1851	0.0892014	0.0890318	8.10253e-06	2	7.5872e-06	7.21383e-10
2	0	0	1	1	32.6451	0.0662008	0.0660875	-0.000274989	2	7.53278e-06	-1.81733e-08
2	0	0	1	1	33.1051	0.0432002	0.0430913	-0.000708584	2	7.30543e-06	-3.05338e-08
2	0	0	1	1	33.5651	0.0201995	0.0200018	-0.000871888	2	6.92361e-06	-1.74393e-08
2	0	0	1	1	34.0251	-0.00280107	-0.00295626	-0.000722866	2	6.55147e-06	2.13698e-09
2	0	0	1	1	34.4851	-0.0258017	-0.0259376	-0.000563941	2	6.25713e-06	1.46273e-08
2	0	0	1	1	34.9451	-0.0488023	-0.0489773	-0.000468879	2	6.02028e-06	2.29645e-08
2	0	0	1	1	35.4051	-0.0718029	-0.0719895	-0.000408361	2	5.81861e-06	2.93977e-08
2	0	0	1	1	35.8651	-0.0948036	-0.0950355	-0.000366773	2	5.63992e-06	3.48564e-08
2	0	0	0	1	36.3253	-0.117804	-0.117999	-0.000339779	2	5.47717e-06	4.00935e-08
2	0	0	0	1	36.7853	-0.140805	-0.140954	-0.000313804	2	5.32618e-06	4.42318e-08
2	0	0	0	1	37.2453	-0.163805	-0.163981	-0.000301137	2	5.18367e-06	4.93806e-08
2	0	0	0	1	37.7053	-0.186806	-0.18703	-0.000291478	2	5.04684e-06	5.45152e-08
2	1	0	1	0	38.1547	-0.190706	-0.190803	-0.000129533	2	4.94278e-06	2.47153e-08
2	1	0	1	0	38.6147	-0.167706	-0.167895	-8.75814e-05	2	4.89578e-06	1.47045e-08
2	1	0	1	0	39.0747	-0.144705	-0.144867	-6.26999e-05	2	4.8633e-06	9.08313e-09
2	1	0	1	0	39.5347	-0.121704	-0.121843	-4.33455e-05	2	4.84038e-06	5.28134e-09
2	1	0	1	0	39.9847	-0.0992037	-0.0993608	-2.93928e-05	3	4.82502e-06	2.92049e-09
2	1	0	0	0	40.4449	-0.0762031	-0.0764166	-1.96952e-05	3	4.81511e-06	1.50504e-09
2	1	0	0	0	40.9049	-0.0532024	-0.0533885	-9.16399e-06	3	4.81028e-06	4.89252e-10
2	1	0	0	0	41.3649	-0.0302018	-0.0303647	5.22331e-06	3	4.81078e-06	-1.58604e-10
2	1	0	0	0	41.8249	-0.00720119	-0.00738228	3.13889e-05	3	4.81973e-06	-2.31722e-10
2	1	0	0	0	42.2849	0.0157994	0.0156998	0.00011371	3	4.85134e-06	1.78523e-09
2	1	0	0	0	42.7449	0.0388	0.038661	0.000347155	3	4.9512e-06	1.34214e-08
2	1	0	0	0	43.2049	0.0618007	0.0617124	0.000751229	3	5.20292e-06	4.63601e-08
2	1	0	0	0	43.6649	0.0848012	0.0846789	0.00100448	3	5.62112e-06	8.50583e-08
2	1	0	0	0	44.1249	0.107802	0.107662	0.000945799	3	6.0788e-06	1.01827e-07
2	1	0	0	0	44.5849	0.130802	0.130642	0.000805387	3	6.48225e-06	1.05217e-07
2	1	0	0	0	45.0449	0.153803	0.153678	0.000697437	3	6.82751e-06	1.07181e-07
2	1	0	0	0	45.5049	0.176804	0.176653	0.000627758	3	7.13224e-06	1.10895e-07
2	1	0	0	0	45.9649	0.199804	0.199671	0.000578836	3	7.40992e-06	1.15576e-07
2	1	0	0	0	46.4249	0.222805	0.222692	0.000546811	3	7.6695e-06	1.21771e-07
2	1	0	0	0	46.8849	0.245805	0.245696	0.000525868	3	7.91706e-06	1.29204e-07
2	1	0	0	0	47.3449	0.268806	0.268685	0.000515696	3	8.15754e-06	1.3856e-07
2	1	0	1	0	47.8051	0.291807	0.291698	0.000519197	3	8.39618e-06	1.51449e-07
2	0	0	0	0	48.2545	0.285707	0.285568	0.000339673	3	8.58688e-06	9.69997e-08
2	0	0	1	0	48.7147	0.262706	0.262605	0.000288629	3	8.72912e-06	7.57954e-08
2	0	0	1	0	49.1747	0.239705	0.239537	0.000258869	3	8.85384e-06	6.20086e-08
2	0	0	1	0	49.6347	0.216705	0.216551	0.000236317	3	8.96691e-06	5.11748e-08
2	0	0	1	0	50.0947	0.193704	0.193577	0.000217136	3	9.07047e-06	4.20325e-08
2	0	0	1	0	50.5547	0.170704	0.170557	0.000198025	3	9.16522e-06	3.37747e-08
2	0	0	1	0	51.0147	0.147703	0.147534	0.000175712	3	9.25058e-06	2.59235e-08
2	0	0	1	0	51.4747	0.124702	0.124551	0.000144216	3	9.3238e-06	1.79622e-08
2	0	0	1	0	51.9347	0.101702	0.101523	7.34239e-05	3	9.37525e-06	7.45423e-09
2	0	0	1	0	52.3947	0.0787011	0.0785376	-9.82504e-05	3	9.37505e-06	-7.71635e-09
2	0	0	1	0	52.8547	0.0557005	0.0555191	-0.000466076	3	9.25152e-06	-2.58761e-08
2	0	0	1	0	53.3147	0.0326999	0.0325865	-0.000842965	3	8.93975e-06	-2.74693e-08
2	0	0	1	0	53.7747	0.00969926	0.00953518	-0.00083635	3	8.53865e-06	-7.97475e-09
2	0	0	1	0	54.2347	-0.0133014	-0.0135215	-0.000662289	3	8.19321e-06	8.95512e-09
2	0	0	1	0	54.6947	-0.036302	-0.0365071	-0.000532833	3	7.92032e-06	1.94522e-08
2	0	0	1	0	55.1547	-0.0593026	-0.0595807	-0.000451955	3	7.69429e-06	2.69278e-08
2	0	0	1	0	55.6147	-0.0823032	-0.0824943	-0.000402095	3	7.49764e-06	3.31705e-08
2	0	0	0	0	56.0749	-0.105304	-0.105524	-0.000364704	3	7.32081e-06	3.84852e-08
2	0	0	0	0	56.5349	-0.128304	-0.128538	-0.000339892	3	7.15833e-06	4.36889e-08
2	0	0	0	0	56.9949	-0.151305	-0.151451	-0.000318596	3	7.00646e-06	4.82517e-08
2	0	0	0	0	57.4549	-0.174306	-0.174494	-0.000303461	3	6.86226e-06	5.29522e-08
2	0	0	0	0	57.9149	-0.197306	-0.197506	-0.000299704	3	6.72284e-06	5.91934e-08
2	1	0	1	1	58.3643	-0.180206	-0.180364	-0.000112638	3	6.65293e-06	2.03158e-08
2	1	0	1	1	58.8243	-0.157205	-0.157364	-8.20102e-05	3	6.61023e-06	1.29055e-08
2	1	0	1	1	59.2843	-0.134205	-0.134348	-6.05467e-05	3	6.57922e-06	8.13433e-09
2	1	0	1	1	59.7443	-0.111204	-0.111352	-4.29587e-05	3	6.55671e-06	4.78353e-09
2	1	0	0	1	60.2045	-0.0882034	-0.0883673	-2.88222e-05	3	6.54088e-06	2.54694e-09
2	1	0	0	1	60.5628	-0.0702779	-0.0704703	-7.62369e-06	3	6.53242e-06	5.37244e-10