File: AutoAnalysis Examples/EC/C003B-20ppb-B_C01.mpt
EC-Lab ASCII FILE
Nb header lines : 59

Cyclic Voltammetry

Run on channel : 1 (SN 22398)
User :
CE vs. WE compliance from -10 V to 10 V
Electrode connection : standard
Ewe ctrl range : min = -1.00 V, max = 1.00 V
Safety Limits :
	Ewe min = -2.00 V
	Ewe max = 2.00 V
	|I| = 50.000 mA
	for t > 10 ms
Acquisition started on : 11/21/2018 11:19:02
Technique started on : 11/21/2018 11:19:02
Saved on :
	File : C003B-20ppb-B_C01.mpr
	Directory : \\ECCOMPUTER\Users\Lab User\Google Drive\Electrochemical Data\EC-Lab\Data\FREDsense\Tim\2018.11.21 - EC comparison to High Throughput\
	Host : 172.16.1.30
Device : SP-50 (SN 0301030103010301)
Address : USB
EC-Lab for windows v11.02 (software)
Internet server v11.02 (firmware)
Command interpretor v11.02 (firmware)
Electrode material : Au/Pd
Initial state :
Electrolyte : NaCl (0.2M)
Comments : Fe(CN)63-/Fe(CN)64- 5.10-3 M
Reference electrode : SCE Saturated Calomel Electrode (0.241 V)
Electrode surface area : 0.001 cm²
Characteristic mass : 0.001 g
Equivalent Weight : 0.000 g/eq.
Density : 0.000 g/cm3
Cycle Definition : Charge/Discharge alternance
Ei (V)              -0.100
vs.                 Ref
dE/dt               50.000
dE/dt unit          mV/s
E1 (V)              0.300
vs.                 Ref
Step percent        50
N                   10
E range min (V)     -1.000
E range max (V)     1.000
I Range             Auto
I Range min         Unset
I Range max         Unset
I Range init        Unset
Bandwidth           5
E2 (V)              -0.200
vs.                 Ref
nc cycles           2
Reverse Scan        1
Ef (V)              0.000
vs.                 Eoc

mode	ox/red	error	control changes	counter inc.	time/s	control/V	Ewe/V	<I>/mA	cycle number	(Q-Qo)/C	P/W
2	1	0	1	0	0.000000000000000E+000	-0.0984851	-0.0986212	-4.63474e-05	1	0.0000000E+000	4.57084e-09
2	1	0	1	0	0.4865	-0.0741592	-0.0744409	4.52498e-05	1	1.84322e-08	-3.36844e-09
2	1	0	1	0	0.9465	-0.0511582	-0.0513874	5.53625e-05	1	4.30884e-08	-2.84493e-09
2	1	0	1	0	1.4065	-0.0281573	-0.0283912	6.80346e-05	1	7.27311e-08	-1.93158e-09
2	1	0	1	0	1.8665	-0.00515635	-0.00545325	0.000104839	1	1.12306e-07	-5.71714e-10
2	1	0	1	0	2.3265	0.0178446	0.0176257	0.00023403	1	1.85272e-07	4.12493e-09
2	1	0	1	0	2.7865	0.0408455	0.0405837	0.000624267	1	3.70283e-07	2.53351e-08
2	1	0	1	0	3.2465	0.0638464	0.0636711	0.00127655	1	8.06596e-07	8.12792e-08
2	1	0	1	0	3.7065	0.0868473	0.0866143	0.00163465	1	1.4984e-06	1.41584e-07
2	1	0	1	0	4.1665	0.109848	0.109671	0.00153837	1	2.23984e-06	1.68715e-07
2	1	0	1	0	4.6265	0.132849	0.132636	0.00133939	1	2.90237e-06	1.77652e-07
2	1	0	0	0	5.0867	0.15585	0.155654	0.00117999	1	3.48046e-06	1.8367e-07
2	1	0	0	0	5.5467	0.178851	0.178682	0.00106729	1	3.99661e-06	1.90705e-07
2	1	0	0	0	6.0067	0.201852	0.201642	0.000991128	1	4.47018e-06	1.99853e-07
2	1	0	0	0	6.4667	0.224853	0.224634	0.000938954	1	4.91465e-06	2.10921e-07
2	1	0	0	0	6.9267	0.247854	0.247669	0.000901805	1	5.33907e-06	2.23349e-07
2	1	0	0	0	7.3867	0.270855	0.270712	0.000878886	1	5.74973e-06	2.37925e-07
2	1	0	0	0	7.8467	0.293856	0.293692	0.000865202	1	6.15169e-06	2.54103e-07
2	0	0	1	0	8.2953	0.283705	0.28352	0.000647181	1	6.48618e-06	1.83489e-07
2	0	0	1	0	8.7553	0.260704	0.260472	0.000569804	1	6.76252e-06	1.48418e-07
2	0	0	1	0	9.2153	0.237703	0.237483	0.000522728	1	7.01265e-06	1.24139e-07
2	0	0	1	0	9.6753	0.214702	0.214514	0.000487071	1	7.24334e-06	1.04483e-07
2	0	0	1	0	10.1353	0.191702	0.191497	0.000452448	1	7.45772e-06	8.66426e-08
2	0	0	1	0	10.5953	0.168701	0.168508	0.00041614	1	7.65649e-06	7.01231e-08
2	0	0	0	0	11.0555	0.1457	0.14551	0.000374988	1	7.83812e-06	5.45646e-08
2	0	0	0	0	11.5155	0.122699	0.122465	0.000313938	1	7.99704e-06	3.84465e-08
2	0	0	0	0	11.9755	0.0996979	0.0995124	0.000192064	1	8.11643e-06	1.91127e-08
2	0	0	0	0	12.4355	0.0766969	0.0765098	-0.000100441	1	8.14651e-06	-7.6847e-09
2	0	0	0	0	12.8955	0.053696	0.053503	-0.000690067	1	7.97415e-06	-3.69207e-08
2	0	0	0	0	13.3555	0.0306951	0.0304305	-0.00121145	1	7.51793e-06	-3.68649e-08
2	0	0	0	0	13.8155	0.00769417	0.00749997	-0.00116872	1	6.95082e-06	-8.76539e-09
2	0	0	0	0	14.2755	-0.0153068	-0.0155175	-0.000908535	1	6.47247e-06	1.40982e-08
2	0	0	0	0	14.7355	-0.0383077	-0.0385031	-0.000713587	1	6.10151e-06	2.74753e-08
2	0	0	0	0	15.1955	-0.0613086	-0.0615258	-0.000592806	1	5.8021e-06	3.64729e-08
2	0	0	0	0	15.6555	-0.0843096	-0.084556	-0.000511181	1	5.54834e-06	4.32234e-08
2	0	0	1	0	16.1157	-0.107311	-0.107493	-0.000447313	1	5.32592e-06	4.8083e-08
2	0	0	1	0	16.5757	-0.130311	-0.130559	-0.000415834	1	5.12642e-06	5.42909e-08
2	0	0	1	0	17.0357	-0.153312	-0.153537	-0.000383416	1	4.94201e-06	5.88686e-08
2	0	0	1	0	17.4957	-0.176313	-0.176584	-0.000361549	1	4.77004e-06	6.3844e-08
2	0	0	1	0	17.9557	-0.199314	-0.199514	-0.000344931	1	4.60694e-06	6.88185e-08
2	1	0	0	1	18.4051	-0.178213	-0.17841	-0.000179452	1	4.51313e-06	3.20159e-08
2	1	0	0	1	18.8651	-0.155212	-0.15547	-0.000145228	1	4.4405e-06	2.25785e-08
2	1	0	0	1	19.3251	-0.132212	-0.13238	-0.000120588	1	4.38115e-06	1.59635e-08
2	1	0	0	1	19.7851	-0.109211	-0.109358	-0.000100405	1	4.33188e-06	1.09801e-08
2	1	0	1	1	20.2453	-0.0862097	-0.0864048	-8.51685e-05	2	4.29075e-06	7.35897e-09
2	1	0	1	1	20.7053	-0.0632087	-0.0633768	-6.8764e-05	2	4.25671e-06	4.35804e-09
2	1	0	1	1	21.1653	-0.0402078	-0.0403912	-5.32285e-05	2	4.22969e-06	2.14996e-09
2	1	0	1	1	21.6253	-0.0172068	-0.0174363	-2.44733e-05	2	4.21223e-06	4.26724e-10
2	1	0	1	1	22.0853	0.00579409	0.00562355	4.92154e-05	2	4.21597e-06	2.76765e-10
2	1	0	1	1	22.5453	0.028795	0.0285986	0.000274397	2	4.28301e-06	7.84737e-09
2	1	0	1	1	23.0053	0.0517959	0.0516732	0.000786373	2	4.51717e-06	4.06344e-08
2	1	0	1	1	23.4653	0.0747969	0.0746334	0.00134078	2	5.01681e-06	1.00067e-07
2	1	0	1	1	23.9253	0.0977978	0.0976487	0.00148189	2	5.68573e-06	1.44705e-07
2	1	0	1	1	24.3853	0.120799	0.120626	0.00132427	2	6.33687e-06	1.59741e-07
2	1	0	1	1	24.8453	0.1438	0.143616	0.00113869	2	6.9033e-06	1.63534e-07
2	1	0	0	1	25.3055	0.166801	0.166602	0.00100184	2	7.39557e-06	1.66909e-07
2	1	0	0	1	25.7655	0.189801	0.189625	0.000904372	2	7.83417e-06	1.71492e-07
2	1	0	0	1	26.2255	0.212802	0.212656	0.0008381	2	8.23547e-06	1.78227e-07
2	1	0	0	1	26.6855	0.235803	0.235642	0.000791024	2	8.61064e-06	1.86398e-07
2	1	0	0	1	27.1455	0.258804	0.258654	0.000757346	2	8.96736e-06	1.95891e-07
2	1	0	0	1	27.6055	0.281805	0.281627	0.000739002	2	9.31231e-06	2.08123e-07
2	0	0	0	1	28.0551	0.295706	0.295527	0.000607485	2	9.63448e-06	1.79528e-07
2	0	0	0	1	28.5151	0.272705	0.272496	0.000518185	2	9.88918e-06	1.41203e-07
2	0	0	0	1	28.9751	0.249704	0.249486	0.000473142	2	1.01154e-05	1.18042e-07
2	0	0	0	1	29.4351	0.226703	0.226473	0.000437319	2	1.03232e-05	9.90409e-08
2	0	0	0	1	29.8951	0.203702	0.203482	0.00040472	2	1.05162e-05	8.23533e-08
2	0	0	0	1	30.3551	0.180701	0.18049	0.000378376	2	1.06956e-05	6.82931e-08
2	0	0	0	1	30.8151	0.1577	0.157549	0.000343333	2	1.08606e-05	5.40917e-08
2	0	0	1	1	31.2753	0.134699	0.134433	0.000300301	2	1.10083e-05	4.03704e-08
2	0	0	1	1	31.7353	0.111698	0.111505	0.000223946	2	1.11299e-05	2.49709e-08
2	0	0	1	1	32.1953	0.0886974	0.0884903	4.98548e-05	2	1.11982e-05	4.41167e-09
2	0	0	1	1	32.6553	0.0656965	0.0654972	-0.00035444	2	1.11389e-05	-2.32148e-08
2	0	0	1	1	33.1153	0.0426956	0.042483	-0.000988809	2	1.08292e-05	-4.20076e-08
2	0	0	1	1	33.5753	0.0196946	0.0194306	-0.00128147	2	1.02822e-05	-2.48997e-08
2	0	0	1	1	34.0353	-0.00330628	-0.00352002	-0.00109402	2	9.72605e-06	3.85096e-09
2	0	0	1	1	34.4953	-0.0263072	-0.0265025	-0.000857688	2	9.27923e-06	2.27308e-08
2	0	0	1	1	34.9553	-0.0493081	-0.0495899	-0.000694527	2	8.92396e-06	3.44415e-08
2	0	0	1	1	35.4153	-0.0723091	-0.0725522	-0.000594717	2	8.62758e-06	4.3148e-08
2	0	0	1	1	35.8753	-0.09531	-0.0955749	-0.000525164	2	8.3701e-06	5.01925e-08
2	0	0	0	1	36.3355	-0.118311	-0.118573	-0.000473956	2	8.13986e-06	5.61985e-08
2	0	0	0	1	36.7955	-0.141312	-0.141531	-0.000436054	2	7.92986e-06	6.17153e-08
2	0	0	0	1	37.2555	-0.164313	-0.164567	-0.000404815	2	7.7354e-06	6.66192e-08
2	0	0	0	1	37.7155	-0.187314	-0.187585	-0.00038527	2	7.55259e-06	7.2271e-08
2	1	0	1	0	38.1649	-0.190214	-0.190401	-0.000236358	2	7.4059e-06	4.50028e-08
2	1	0	1	0	38.6249	-0.167213	-0.167424	-0.000188716	2	7.31032e-06	3.15956e-08
2	1	0	1	0	39.0849	-0.144212	-0.144405	-0.000161072	2	7.23143e-06	2.32597e-08
2	1	0	1	0	39.5449	-0.121211	-0.121395	-0.00013741	2	7.16457e-06	1.66809e-08
2	1	0	0	0	40.0051	-0.0982101	-0.0984627	-0.000117322	3	7.10733e-06	1.15519e-08
2	1	0	0	0	40.4651	-0.0752092	-0.0754166	-0.000102979	3	7.05809e-06	7.76633e-09
2	1	0	0	0	40.9251	-0.0522083	-0.0524734	-8.36706e-05	3	7.01617e-06	4.39048e-09
2	1	0	0	0	41.3851	-0.0292073	-0.0293786	-6.49927e-05	3	6.98256e-06	1.90939e-09
2	1	0	0	0	41.8451	-0.0062064	-0.00642582	-2.13945e-05	3	6.9629e-06	1.37477e-10
2	1	0	0	0	42.3051	0.0167945	0.0166245	0.000109324	3	6.97926e-06	1.81745e-09
2	1	0	0	0	42.7651	0.0397955	0.039661	0.000449571	3	7.09798e-06	1.78304e-08
2	1	0	0	0	43.2251	0.0627964	0.0626434	0.00102267	3	7.43463e-06	6.40632e-08
2	1	0	0	0	43.6851	0.0857973	0.0855951	0.00141551	3	8.01351e-06	1.21161e-07
2	1	0	0	0	44.1451	0.108798	0.108604	0.00138753	3	8.6718e-06	1.50691e-07
2	1	0	0	0	44.6051	0.131799	0.131635	0.00120622	3	9.27086e-06	1.58781e-07
2	1	0	1	0	45.0653	0.1548	0.154636	0.00104321	3	9.7881e-06	1.61318e-07
2	1	0	1	0	45.5253	0.177801	0.177621	0.00092577	3	1.02411e-05	1.64436e-07
2	1	0	1	0	45.9853	0.200802	0.200673	0.000843611	3	1.06484e-05	1.6929e-07
2	1	0	1	0	46.4453	0.223803	0.223603	0.000783764	3	1.10237e-05	1.75252e-07
2	1	0	1	0	46.9053	0.246804	0.246651	0.000740586	3	1.13755e-05	1.82667e-07
2	1	0	1	0	47.3653	0.269805	0.269651	0.000711531	3	1.17105e-05	1.91865e-07
2	1	0	1	0	47.8253	0.292806	0.292593	0.000695123	3	1.20351e-05	2.03388e-07
2	0	0	1	0	48.2749	0.284705	0.284473	0.000523998	3	1.23052e-05	1.49063e-07
2	0	0	1	0	48.7349	0.261704	0.261498	0.000468335	3	1.25317e-05	1.22469e-07
2	0	0	1	0	49.1949	0.238703	0.238512	0.000430287	3	1.27377e-05	1.02628e-07
2	0	0	1	0	49.6549	0.215703	0.215504	0.00040283	3	1.29285e-05	8.68114e-08
2	0	0	1	0	50.1149	0.192702	0.192465	0.000371706	3	1.31056e-05	7.15405e-08
2	0	0	1	0	50.5749	0.169701	0.169502	0.000342418	3	1.32695e-05	5.80404e-08
2	0	0	0	0	51.0351	0.1467	0.146492	0.000308309	3	1.34183e-05	4.51647e-08
2	0	0	0	0	51.4951	0.123699	0.123511	0.000252936	3	1.35471e-05	3.12404e-08
2	0	0	0	0	51.9551	0.100698	0.100508	0.000146659	3	1.36414e-05	1.47403e-08
2	0	0	0	0	52.4151	0.077697	0.0775148	-0.000109433	3	1.36574e-05	-8.48272e-09
2	0	0	0	0	52.8751	0.0546961	0.0544847	-0.000642675	3	1.34939e-05	-3.50159e-08
2	0	0	0	0	53.3351	0.0316951	0.031445	-0.0011939	3	1.30576e-05	-3.75422e-08
2	0	0	0	0	53.7951	0.00869421	0.00844348	-0.00122959	3	1.24786e-05	-1.0382e-08
2	0	0	0	0	54.2551	-0.0143067	-0.0145156	-0.000987486	3	1.19663e-05	1.4334e-08
2	0	0	0	0	54.7151	-0.0373077	-0.0375564	-0.000785947	3	1.15607e-05	2.95173e-08
2	0	0	0	0	55.1751	-0.0603086	-0.0605526	-0.000660017	3	1.12295e-05	3.99658e-08
2	0	0	0	0	55.6351	-0.0833095	-0.0834768	-0.000572828	3	1.09466e-05	4.78178e-08
2	0	0	1	0	56.0953	-0.10631	-0.106568	-0.000512322	3	1.06964e-05	5.45973e-08
2	0	0	1	0	56.5553	-0.129311	-0.129559	-0.00046931	3	1.047e-05	6.08035e-08
2	0	0	1	0	57.0153	-0.152312	-0.152512	-0.000433793	3	1.02618e-05	6.61587e-08
2	0	0	1	0	57.4753	-0.175313	-0.175574	-0.000409537	3	1.00677e-05	7.19041e-08
2	0	0	1	0	57.9353	-0.198314	-0.198552	-0.000387139	3	9.88389e-06	7.68673e-08
2	1	0	0	1	58.3847	-0.179213	-0.179439	-0.000219045	3	9.76886e-06	3.93053e-08
2	1	0	0	1	58.8447	-0.156213	-0.156431	-0.000185286	3	9.67758e-06	2.89845e-08
2	1	0	0	1	59.3047	-0.133212	-0.133396	-0.000157615	3	9.60037e-06	2.10253e-08
2	1	0	0	1	59.7647	-0.110211	-0.110385	-0.000136396	3	9.53413e-06	1.5056e-08
2	1	0	1	1	60.2249	-0.0872097	-0.0874363	-0.000120385	3	9.47677e-06	1.0526e-08
2	1	0	1	1	60.6829	-0.0643088	-0.0644982	-0.000102761	3	9.42728e-06	6.6279e-09
2	1	0	0	1	60.6866	-0.0640837	-0.064315	-0.000104027	3	9.42691e-06	6.69046e-09