File: AutoAnalysis Examples/EC/C003B-10ppb-A_C01.mpt
EC-Lab ASCII FILE
Nb header lines : 59

Cyclic Voltammetry

Run on channel : 1 (SN 22398)
User :
CE vs. WE compliance from -10 V to 10 V
Electrode connection : standard
Ewe ctrl range : min = -1.00 V, max = 1.00 V
Safety Limits :
	Ewe min = -2.00 V
	Ewe max = 2.00 V
	|I| = 50.000 mA
	for t > 10 ms
Acquisition started on : 11/21/2018 10:19:48
Technique started on : 11/21/2018 10:19:48
Saved on :
	File : C003B-10ppb-A_C01.mpr
	Directory : \\ECCOMPUTER\Users\Lab User\Google Drive\Electrochemical Data\EC-Lab\Data\FREDsense\Tim\2018.11.21 - EC comparison to High Throughput\
	Host : 172.16.1.30
Device : SP-50 (SN 0301030103010301)
Address : USB
EC-Lab for windows v11.02 (software)
Internet server v11.02 (firmware)
Command interpretor v11.02 (firmware)
Electrode material : Au/Pd
Initial state :
Electrolyte : NaCl (0.2M)
Comments : Fe(CN)63-/Fe(CN)64- 5.10-3 M
Reference electrode : SCE Saturated Calomel Electrode (0.241 V)
Electrode surface area : 0.001 cm²
Characteristic mass : 0.001 g
Equivalent Weight : 0.000 g/eq.
Density : 0.000 g/cm3
Cycle Definition : Charge/Discharge alternance
Ei (V)              -0.100
vs.                 Ref
dE/dt               50.000
dE/dt unit          mV/s
E1 (V)              0.300
vs.                 Ref
Step percent        50
N                   10
E range min (V)     -1.000
E range max (V)     1.000
I Range             Auto
I Range min         Unset
I Range max         Unset
I Range init        Unset
Bandwidth           5
E2 (V)              -0.200
vs.                 Ref
nc cycles           2
Reverse Scan        1
Ef (V)              0.000
vs.                 Eoc

mode	ox/red	error	control changes	counter inc.	time/s	control/V	Ewe/V	<I>/mA	cycle number	(Q-Qo)/C	P/W
2	1	0	1	0	0.000000000000000E+000	-0.0985237	-0.0985242	-0.000134734	1	0.0000000E+000	1.32745e-08
2	1	0	1	0	0.4865	-0.0741978	-0.0742336	5.17396e-05	1	1.86224e-08	-3.84081e-09
2	1	0	1	0	0.9465	-0.0511969	-0.0512585	6.28343e-05	1	4.65121e-08	-3.22079e-09
2	1	0	1	0	1.4065	-0.028196	-0.0283227	7.81189e-05	1	7.96198e-08	-2.21254e-09
2	1	0	1	0	1.8665	-0.00519512	-0.00525336	0.000107328	1	1.21956e-07	-5.63833e-10
2	1	0	1	0	2.3265	0.0178058	0.0177407	0.000217889	1	1.93159e-07	3.8655e-09
2	1	0	1	0	2.7865	0.0408067	0.0406776	0.00055049	1	3.59884e-07	2.23926e-08
2	1	0	1	0	3.2465	0.0638075	0.0637491	0.00110421	1	7.40778e-07	7.03927e-08
2	1	0	1	0	3.7065	0.0868084	0.0867792	0.00138207	1	1.33266e-06	1.19935e-07
2	1	0	1	0	4.1665	0.109809	0.109722	0.00126788	1	1.95129e-06	1.39114e-07
2	1	0	1	0	4.6265	0.13281	0.132763	0.00109307	1	2.49419e-06	1.45119e-07
2	1	0	1	0	5.0865	0.155811	0.155783	0.000966026	1	2.96683e-06	1.5049e-07
2	1	0	0	0	5.5467	0.178812	0.178737	0.000884782	1	3.39274e-06	1.58143e-07
2	1	0	0	0	6.0067	0.201813	0.201723	0.000833103	1	3.7881e-06	1.68056e-07
2	1	0	0	0	6.4667	0.224814	0.224731	0.000800017	1	4.16408e-06	1.79789e-07
2	1	0	0	0	6.9267	0.247815	0.247673	0.000780996	1	4.52893e-06	1.93432e-07
2	1	0	0	0	7.3867	0.270815	0.270768	0.000767951	1	4.88547e-06	2.07937e-07
2	1	0	0	0	7.8467	0.293816	0.293698	0.0007638	1	5.23904e-06	2.24327e-07
2	0	0	1	0	8.2963	0.283716	0.283604	0.000528758	1	5.52311e-06	1.49958e-07
2	0	0	1	0	8.7563	0.260715	0.260655	0.000453208	1	5.74576e-06	1.18131e-07
2	0	0	1	0	9.2163	0.237714	0.237574	0.000406253	1	5.94142e-06	9.65155e-08
2	0	0	1	0	9.6763	0.214713	0.214532	0.000372397	1	6.11941e-06	7.98909e-08
2	0	0	1	0	10.1363	0.191712	0.191621	0.000343122	1	6.28332e-06	6.57496e-08
2	0	0	1	0	10.5963	0.168712	0.168619	0.000317149	1	6.43435e-06	5.34773e-08
2	0	0	0	0	11.0565	0.145711	0.145595	0.000285344	1	6.57192e-06	4.15446e-08
2	0	0	0	0	11.5165	0.12271	0.122579	0.000237275	1	6.69184e-06	2.90848e-08
2	0	0	0	0	11.9765	0.0997089	0.0996131	0.000136417	1	6.78015e-06	1.35889e-08
2	0	0	0	0	12.4365	0.076708	0.0766328	-0.000111659	1	6.79369e-06	-8.55675e-09
2	0	0	0	0	12.8965	0.0537071	0.0536577	-0.000612174	1	6.63445e-06	-3.28479e-08
2	0	0	0	0	13.3565	0.0307063	0.0306318	-0.00103548	1	6.238e-06	-3.17188e-08
2	0	0	0	0	13.8165	0.00770538	0.00765472	-0.000970479	1	5.76063e-06	-7.42874e-09
2	0	0	0	0	14.2765	-0.0152955	-0.0154433	-0.000747457	1	5.36608e-06	1.15432e-08
2	0	0	0	0	14.7365	-0.0382964	-0.038395	-0.000591237	1	5.05993e-06	2.27005e-08
2	0	0	0	0	15.1965	-0.0612973	-0.061422	-0.000497823	1	4.8098e-06	3.05773e-08
2	0	0	0	0	15.6565	-0.0842982	-0.0844108	-0.000436777	1	4.59486e-06	3.68687e-08
2	0	0	1	0	16.1167	-0.107299	-0.107375	-0.000394093	1	4.40359e-06	4.23159e-08
2	0	0	1	0	16.5767	-0.1303	-0.13037	-0.000359753	1	4.22931e-06	4.69011e-08
2	0	0	1	0	17.0367	-0.153301	-0.153419	-0.000337802	1	4.0675e-06	5.18251e-08
2	0	0	1	0	17.4967	-0.176302	-0.176434	-0.000323229	1	3.91467e-06	5.70286e-08
2	0	0	1	0	17.9567	-0.199303	-0.199361	-0.000312656	1	3.76775e-06	6.23314e-08
2	1	0	0	1	18.3961	-0.178752	-0.1788	-0.000131529	1	3.69657e-06	2.35174e-08
2	1	0	0	1	18.8561	-0.155751	-0.155831	-9.95381e-05	1	3.64557e-06	1.55112e-08
2	1	0	0	1	19.3161	-0.13275	-0.132848	-7.72745e-05	1	3.60703e-06	1.02657e-08
2	1	0	0	1	19.7761	-0.109749	-0.109817	-5.83528e-05	1	3.57758e-06	6.40811e-09
2	1	0	1	1	20.2363	-0.0867483	-0.0867929	-4.5096e-05	2	3.55534e-06	3.91401e-09
2	1	0	1	1	20.6963	-0.0637474	-0.0638221	-3.24734e-05	2	3.53922e-06	2.07252e-09
2	1	0	1	1	21.1563	-0.0407465	-0.040846	-1.73583e-05	2	3.52899e-06	7.09017e-10
2	1	0	1	1	21.6163	-0.0177456	-0.0178243	2.47833e-06	2	3.52647e-06	-4.41745e-11
2	1	0	1	1	22.0763	0.00525529	0.00523445	6.47243e-05	2	3.54102e-06	3.38797e-10
2	1	0	1	1	22.5363	0.0282562	0.0281522	0.000252515	2	3.60761e-06	7.10886e-09
2	1	0	1	1	22.9963	0.0512571	0.0511983	0.000688357	2	3.81576e-06	3.52427e-08
2	1	0	1	1	23.4563	0.0742579	0.0742305	0.00116577	2	4.25201e-06	8.65356e-08
2	1	0	1	1	23.9163	0.0972588	0.0971928	0.00125225	2	4.8258e-06	1.21709e-07
2	1	0	1	1	24.3763	0.12026	0.120183	0.00109202	2	5.36976e-06	1.31242e-07
2	1	0	1	1	24.8363	0.143261	0.143106	0.000931237	2	5.83484e-06	1.33265e-07
2	1	0	0	1	25.2965	0.166261	0.166194	0.000822249	2	6.23819e-06	1.36653e-07
2	1	0	0	1	25.7565	0.189262	0.189194	0.000750091	2	6.59981e-06	1.41912e-07
2	1	0	0	1	26.2165	0.212263	0.212189	0.000698276	2	6.9336e-06	1.48166e-07
2	1	0	0	1	26.6765	0.235264	0.235151	0.000666687	2	7.24876e-06	1.56772e-07
2	1	0	0	1	27.1365	0.258265	0.258188	0.000645561	2	7.55185e-06	1.66676e-07
2	1	0	0	1	27.5965	0.281266	0.281205	0.000641166	2	7.84878e-06	1.80299e-07
2	0	0	0	1	28.0471	0.296216	0.296115	0.00050369	2	8.12984e-06	1.4915e-07
2	0	0	0	1	28.5071	0.273216	0.273044	0.000413285	2	8.33616e-06	1.12845e-07
2	0	0	0	1	28.9671	0.250215	0.250037	0.000365831	2	8.51403e-06	9.14715e-08
2	0	0	0	1	29.4271	0.227214	0.227034	0.000339129	2	8.67496e-06	7.69936e-08
2	0	0	0	1	29.8871	0.204213	0.204106	0.000311615	2	8.82306e-06	6.36027e-08
2	0	0	0	1	30.3471	0.181212	0.18111	0.000288585	2	8.95978e-06	5.22657e-08
2	0	0	1	1	30.8073	0.158211	0.158127	0.0002614	2	9.08523e-06	4.13343e-08
2	0	0	1	1	31.2673	0.13521	0.1351	0.000226139	2	9.19736e-06	3.05514e-08
2	0	0	1	1	31.7273	0.112209	0.112074	0.000168703	2	9.28916e-06	1.89072e-08
2	0	0	1	1	32.1873	0.0892085	0.0890988	2.51871e-05	2	9.3378e-06	2.24414e-09
2	0	0	1	1	32.6473	0.0662076	0.0661396	-0.000322539	2	9.27895e-06	-2.13326e-08
2	0	0	1	1	33.1073	0.0432067	0.043101	-0.000861494	2	9.00624e-06	-3.71313e-08
2	0	0	1	1	33.5673	0.0202059	0.0201154	-0.00108818	2	8.53577e-06	-2.18893e-08
2	0	0	1	1	34.0273	-0.00279502	-0.00287656	-0.000909439	2	8.06831e-06	2.61606e-09
2	0	0	1	1	34.4873	-0.0257959	-0.0259131	-0.000714014	2	7.69743e-06	1.85023e-08
2	0	0	1	1	34.9473	-0.0487968	-0.0488552	-0.000582665	2	7.40126e-06	2.84662e-08
2	0	0	1	1	35.4073	-0.0717977	-0.0719267	-0.000502981	2	7.15149e-06	3.61778e-08
2	0	0	1	1	35.8673	-0.0947986	-0.0949696	-0.000451858	2	6.93209e-06	4.29128e-08
2	0	0	0	1	36.3275	-0.117799	-0.11793	-0.000409823	2	6.7339e-06	4.83304e-08
2	0	0	0	1	36.7875	-0.1408	-0.140852	-0.000380471	2	6.55138e-06	5.359e-08
2	0	0	0	1	37.2475	-0.163801	-0.163904	-0.000359045	2	6.38059e-06	5.88489e-08
2	0	0	0	1	37.7075	-0.186802	-0.186895	-0.000344318	2	6.21824e-06	6.43514e-08
2	1	0	1	0	38.1469	-0.191252	-0.191311	-0.000184249	2	6.09227e-06	3.52488e-08
2	1	0	1	0	38.6069	-0.168251	-0.168394	-0.000137929	2	6.02089e-06	2.32264e-08
2	1	0	1	0	39.0669	-0.145251	-0.145332	-0.000110668	2	5.96573e-06	1.60836e-08
2	1	0	1	0	39.5269	-0.12225	-0.122352	-8.74206e-05	2	5.92154e-06	1.06961e-08
2	1	0	1	0	39.9869	-0.0992488	-0.0993066	-7.21183e-05	3	5.88597e-06	7.16182e-09
2	1	0	0	0	40.4471	-0.0762479	-0.0762425	-5.72594e-05	3	5.85736e-06	4.3656e-09
2	1	0	0	0	40.9071	-0.053247	-0.0533957	-4.50307e-05	3	5.83495e-06	2.40445e-09
2	1	0	0	0	41.3671	-0.0302461	-0.0303762	-2.97814e-05	3	5.81928e-06	9.04644e-10
2	1	0	0	0	41.8271	-0.00724519	-0.00737679	7.4313e-06	3	5.81448e-06	-5.48192e-11
2	1	0	0	0	42.2871	0.0157557	0.0156926	0.000109202	3	5.83835e-06	1.71366e-09
2	1	0	0	0	42.7471	0.0387566	0.0386973	0.000397669	3	5.94683e-06	1.53887e-08
2	1	0	0	0	43.2071	0.0617575	0.0617242	0.000895863	3	6.24243e-06	5.52965e-08
2	1	0	0	0	43.6671	0.0847583	0.0847268	0.00122621	3	6.74752e-06	1.03893e-07
2	1	0	0	0	44.1271	0.107759	0.107669	0.00117304	3	7.31055e-06	1.26299e-07
2	1	0	0	0	44.5871	0.13076	0.130669	0.000993409	3	7.81004e-06	1.29808e-07
2	1	0	0	0	45.0471	0.153761	0.153669	0.000858548	3	8.23592e-06	1.31932e-07
2	1	0	1	0	45.5073	0.176762	0.176627	0.000764795	3	8.60948e-06	1.35083e-07
2	1	0	1	0	45.9673	0.199763	0.19965	0.000702598	3	8.94744e-06	1.40273e-07
2	1	0	1	0	46.4273	0.222764	0.2227	0.000660341	3	9.26124e-06	1.47058e-07
2	1	0	1	0	46.8873	0.245765	0.245659	0.000628341	3	9.55826e-06	1.54358e-07
2	1	0	1	0	47.3473	0.268765	0.268661	0.000609809	3	9.84404e-06	1.63832e-07
2	1	0	1	0	47.8073	0.291766	0.291713	0.000604985	3	1.01244e-05	1.76482e-07
2	0	0	1	0	48.2579	0.285716	0.285542	0.000424096	3	1.03547e-05	1.21097e-07
2	0	0	1	0	48.7179	0.262715	0.26258	0.000368053	3	1.0535e-05	9.66433e-08
2	0	0	1	0	49.1779	0.239714	0.239526	0.000335469	3	1.06958e-05	8.03535e-08
2	0	0	1	0	49.6379	0.216713	0.216539	0.000306871	3	1.08431e-05	6.64496e-08
2	0	0	1	0	50.0979	0.193713	0.193569	0.000286799	3	1.0979e-05	5.55154e-08
2	0	0	1	0	50.5579	0.170712	0.170588	0.000262469	3	1.11041e-05	4.47741e-08
2	0	0	0	0	51.0181	0.147711	0.147542	0.000232263	3	1.12178e-05	3.42687e-08
2	0	0	0	0	51.4781	0.12471	0.124602	0.000194325	3	1.13162e-05	2.42133e-08
2	0	0	0	0	51.9381	0.101709	0.10163	0.00010819	3	1.13877e-05	1.09954e-08
2	0	0	0	0	52.3981	0.0787081	0.0786078	-0.000103037	3	1.13955e-05	-8.09954e-09
2	0	0	0	0	52.8581	0.0557072	0.0556243	-0.000558386	3	1.12518e-05	-3.10598e-08
2	0	0	0	0	53.3181	0.0327063	0.0325804	-0.00103174	3	1.08744e-05	-3.36144e-08
2	0	0	0	0	53.7781	0.00970546	0.00966047	-0.00104305	3	1.03788e-05	-1.00764e-08
2	0	0	0	0	54.2381	-0.0132954	-0.013358	-0.000827682	3	9.94738e-06	1.10562e-08
2	0	0	0	0	54.6981	-0.0362963	-0.0364772	-0.000658931	3	9.60757e-06	2.4036e-08
2	0	0	0	0	55.1581	-0.0592972	-0.059466	-0.000558084	3	9.32839e-06	3.3187e-08
2	0	0	0	0	55.6181	-0.0822981	-0.0824442	-0.000491113	3	9.08745e-06	4.04894e-08
2	0	0	1	0	56.0783	-0.105299	-0.105396	-0.000443084	3	8.87243e-06	4.66993e-08
2	0	0	1	0	56.5383	-0.1283	-0.128493	-0.000409461	3	8.67626e-06	5.26128e-08
2	0	0	1	0	56.9983	-0.151301	-0.15137	-0.000380307	3	8.49416e-06	5.75672e-08
2	0	0	1	0	57.4583	-0.174302	-0.174403	-0.000363648	3	8.3227e-06	6.34212e-08
2	0	0	1	0	57.9183	-0.197303	-0.197358	-0.000349587	3	8.15853e-06	6.89937e-08
2	1	0	0	1	58.3577	-0.180752	-0.180742	-0.000167502	3	8.06602e-06	3.02747e-08
2	1	0	0	1	58.8177	-0.157751	-0.157804	-0.000133426	3	7.99937e-06	2.10553e-08
2	1	0	0	1	59.2777	-0.13475	-0.134844	-0.000107983	3	7.94595e-06	1.45609e-08
2	1	0	0	1	59.7377	-0.111749	-0.111818	-9.03034e-05	3	7.90245e-06	1.00976e-08
2	1	0	1	1	60.1979	-0.0887484	-0.0888442	-7.12899e-05	3	7.86684e-06	6.33369e-09
2	1	0	1	1	60.6579	-0.0657475	-0.0658501	-5.87503e-05	3	7.83786e-06	3.86871e-09
2	1	0	0	1	60.7152	-0.0628723	-0.0630312	-4.83215e-05	3	7.83471e-06	3.04576e-09