File: AutoAnalysis Examples/EC/C003C-0ppb-A_C01.mpt
EC-Lab ASCII FILE
Nb header lines : 59

Cyclic Voltammetry

Run on channel : 1 (SN 22398)
User :
CE vs. WE compliance from -10 V to 10 V
Electrode connection : standard
Ewe ctrl range : min = -1.00 V, max = 1.00 V
Safety Limits :
	Ewe min = -2.00 V
	Ewe max = 2.00 V
	|I| = 50.000 mA
	for t > 10 ms
Acquisition started on : 11/21/2018 10:25:16
Technique started on : 11/21/2018 10:25:16
Saved on :
	File : C003C-0ppb-A_C01.mpr
	Directory : \\ECCOMPUTER\Users\Lab User\Google Drive\Electrochemical Data\EC-Lab\Data\FREDsense\Tim\2018.11.21 - EC comparison to High Throughput\
	Host : 172.16.1.30
Device : SP-50 (SN 0301030103010301)
Address : USB
EC-Lab for windows v11.02 (software)
Internet server v11.02 (firmware)
Command interpretor v11.02 (firmware)
Electrode material : Au/Pd
Initial state :
Electrolyte : NaCl (0.2M)
Comments : Fe(CN)63-/Fe(CN)64- 5.10-3 M
Reference electrode : SCE Saturated Calomel Electrode (0.241 V)
Electrode surface area : 0.001 cm²
Characteristic mass : 0.001 g
Equivalent Weight : 0.000 g/eq.
Density : 0.000 g/cm3
Cycle Definition : Charge/Discharge alternance
Ei (V)              -0.100
vs.                 Ref
dE/dt               50.000
dE/dt unit          mV/s
E1 (V)              0.300
vs.                 Ref
Step percent        50
N                   10
E range min (V)     -1.000
E range max (V)     1.000
I Range             Auto
I Range min         Unset
I Range max         Unset
I Range init        Unset
Bandwidth           5
E2 (V)              -0.200
vs.                 Ref
nc cycles           2
Reverse Scan        1
Ef (V)              0.000
vs.                 Eoc

mode	ox/red	error	control changes	counter inc.	time/s	control/V	Ewe/V	<I>/mA	cycle number	(Q-Qo)/C	P/W
2	1	0	1	0	0.000000000000000E+000	-0.0984933	-0.0987497	-7.49617e-05	1	0.0000000E+000	7.40245e-09
2	1	0	1	0	0.4865	-0.0741673	-0.0742937	4.95422e-05	1	1.9587e-08	-3.68067e-09
2	1	0	1	0	0.9465	-0.0511664	-0.0512031	6.19794e-05	1	4.67187e-08	-3.17354e-09
2	1	0	1	0	1.4065	-0.0281655	-0.0282525	7.60328e-05	1	7.93004e-08	-2.14812e-09
2	1	0	1	0	1.8665	-0.00516453	-0.00527323	0.000119433	1	1.23801e-07	-6.29798e-10
2	1	0	1	0	2.3265	0.0178364	0.0177368	0.000286207	1	2.10715e-07	5.0764e-09
2	1	0	1	0	2.7865	0.0408373	0.0407595	0.000790861	1	4.42638e-07	3.22351e-08
2	1	0	1	0	3.2465	0.0638382	0.0637981	0.00163519	1	1.00005e-06	1.04322e-07
2	1	0	1	0	3.7065	0.0868392	0.0867095	0.00207022	1	1.88255e-06	1.79508e-07
2	1	0	1	0	4.1665	0.10984	0.109749	0.00191005	1	2.81274e-06	2.09627e-07
2	1	0	1	0	4.6265	0.132841	0.132785	0.00163533	1	3.62758e-06	2.17147e-07
2	1	0	0	0	5.0867	0.155842	0.155752	0.00143116	1	4.33132e-06	2.22907e-07
2	1	0	0	0	5.5467	0.178843	0.178768	0.00129829	1	4.95846e-06	2.32092e-07
2	1	0	0	0	6.0067	0.201844	0.201717	0.00120322	1	5.53337e-06	2.42711e-07
2	1	0	0	0	6.4667	0.224845	0.224743	0.00113924	1	6.07253e-06	2.56035e-07
2	1	0	0	0	6.9267	0.247846	0.247722	0.00109063	1	6.586e-06	2.70175e-07
2	1	0	0	0	7.3867	0.270847	0.270782	0.00105439	1	7.08063e-06	2.85509e-07
2	1	0	0	0	7.8467	0.293847	0.29373	0.00103541	1	7.56248e-06	3.04131e-07
2	0	0	1	0	8.2853	0.284247	0.28408	0.000794366	1	7.9561e-06	2.25664e-07
2	0	0	1	0	8.7453	0.261246	0.261112	0.000705087	1	8.29778e-06	1.84106e-07
2	0	0	1	0	9.2053	0.238245	0.238098	0.000648481	1	8.60704e-06	1.54402e-07
2	0	0	1	0	9.6653	0.215244	0.2151	0.000604231	1	8.89392e-06	1.2997e-07
2	0	0	1	0	10.1253	0.192243	0.192082	0.000566398	1	9.16199e-06	1.08795e-07
2	0	0	1	0	10.5853	0.169242	0.169126	0.000525386	1	9.41191e-06	8.88563e-08
2	0	0	0	0	11.0455	0.146242	0.146089	0.000478626	1	9.64203e-06	6.99221e-08
2	0	0	0	0	11.5055	0.123241	0.123126	0.000407458	1	9.84617e-06	5.01686e-08
2	0	0	0	0	11.9655	0.10024	0.100114	0.000261365	1	1.00036e-05	2.61662e-08
2	0	0	0	0	12.4255	0.0772388	0.0771313	-0.000107271	1	1.00507e-05	-8.27398e-09
2	0	0	0	0	12.8855	0.0542379	0.0541605	-0.000866548	1	9.83932e-06	-4.69327e-08
2	0	0	0	0	13.3455	0.0312369	0.0311145	-0.00154392	1	9.26069e-06	-4.80383e-08
2	0	0	0	0	13.8055	0.00823601	0.00812357	-0.0014698	1	8.54122e-06	-1.194e-08
2	0	0	0	0	14.2655	-0.0147649	-0.0149225	-0.00112675	1	7.94417e-06	1.68139e-08
2	0	0	0	0	14.7255	-0.0377659	-0.0379261	-0.000878105	1	7.48664e-06	3.33031e-08
2	0	0	0	0	15.1855	-0.0607668	-0.0609542	-0.00072802	1	7.11914e-06	4.43759e-08
2	0	0	0	0	15.6455	-0.0837677	-0.0839239	-0.000624538	1	6.80871e-06	5.24136e-08
2	0	0	1	0	16.1057	-0.106769	-0.106896	-0.000556111	1	6.53694e-06	5.94459e-08
2	0	0	1	0	16.5657	-0.12977	-0.129857	-0.000504649	1	6.29299e-06	6.55322e-08
2	0	0	1	0	17.0257	-0.152771	-0.152874	-0.000465131	1	6.06979e-06	7.11066e-08
2	0	0	1	0	17.4857	-0.175771	-0.175862	-0.000435077	1	5.86238e-06	7.65136e-08
2	0	0	1	0	17.9457	-0.198772	-0.198853	-0.000412199	1	5.66652e-06	8.1967e-08
2	1	0	1	1	18.3961	-0.178722	-0.1788	-0.000222548	1	5.54829e-06	3.97916e-08
2	1	0	1	1	18.8561	-0.155721	-0.155761	-0.000183301	1	5.45631e-06	2.85511e-08
2	1	0	1	1	19.3161	-0.13272	-0.132801	-0.000153678	1	5.38005e-06	2.04086e-08
2	1	0	1	1	19.7761	-0.109719	-0.109822	-0.000130759	1	5.31575e-06	1.43602e-08
2	1	0	0	1	20.2363	-0.0867178	-0.0867873	-0.000112684	2	5.26106e-06	9.7795e-09
2	1	0	0	1	20.6963	-0.0637169	-0.0638419	-9.46081e-05	2	5.21481e-06	6.03997e-09
2	1	0	0	1	21.1563	-0.040716	-0.0408075	-7.34255e-05	2	5.17706e-06	2.99631e-09
2	1	0	0	1	21.6163	-0.017715	-0.0178336	-4.12647e-05	2	5.15098e-06	7.35898e-10
2	1	0	0	1	22.0763	0.00528589	0.00519762	5.36049e-05	2	5.15118e-06	2.78618e-10
2	1	0	0	1	22.5363	0.0282868	0.0281811	0.000342858	2	5.23203e-06	9.66211e-09
2	1	0	0	1	22.9963	0.0512877	0.0512219	0.00101504	2	5.53122e-06	5.19924e-08
2	1	0	0	1	23.4563	0.0742887	0.0741969	0.00174324	2	6.18012e-06	1.29343e-07
2	1	0	0	1	23.9163	0.0972896	0.097192	0.00188836	2	7.04169e-06	1.83533e-07
2	1	0	0	1	24.3763	0.12029	0.120183	0.00164435	2	7.86065e-06	1.97623e-07
2	1	0	0	1	24.8363	0.143291	0.143189	0.00139698	2	8.55929e-06	2.00032e-07
2	1	0	1	1	25.2965	0.166292	0.166211	0.00122841	2	9.16232e-06	2.04176e-07
2	1	0	1	1	25.7565	0.189293	0.189129	0.00111051	2	9.69991e-06	2.10031e-07
2	1	0	1	1	26.2165	0.212294	0.212191	0.00102994	2	1.01925e-05	2.18543e-07
2	1	0	1	1	26.6765	0.235295	0.2351	0.000971825	2	1.06534e-05	2.28477e-07
2	1	0	1	1	27.1365	0.258296	0.258169	0.000927505	2	1.10909e-05	2.39453e-07
2	1	0	1	1	27.5965	0.281297	0.281188	0.000901281	2	1.15123e-05	2.5343e-07
2	0	0	1	1	28.0361	0.296748	0.296634	0.000750913	2	1.18986e-05	2.22746e-07
2	0	0	1	1	28.4961	0.273747	0.27358	0.000647075	2	1.22148e-05	1.77027e-07
2	0	0	1	1	28.9561	0.250746	0.250588	0.000590542	2	1.24975e-05	1.47982e-07
2	0	0	1	1	29.4161	0.227745	0.227552	0.000548628	2	1.27584e-05	1.24842e-07
2	0	0	1	1	29.8761	0.204744	0.204613	0.000513274	2	1.30018e-05	1.05023e-07
2	0	0	1	1	30.3361	0.181743	0.181601	0.000478875	2	1.32289e-05	8.69644e-08
2	0	0	1	1	30.7961	0.158742	0.158624	0.000439746	2	1.34395e-05	6.97543e-08
2	0	0	0	1	31.2563	0.135741	0.135562	0.000388936	2	1.36305e-05	5.2725e-08
2	0	0	0	1	31.7163	0.11274	0.112618	0.000301469	2	1.37913e-05	3.39508e-08
2	0	0	0	1	32.1763	0.0897393	0.0896471	9.34354e-05	2	1.38885e-05	8.37621e-09
2	0	0	0	1	32.6363	0.0667384	0.0666647	-0.00042639	2	1.38265e-05	-2.84252e-08
2	0	0	0	1	33.0963	0.0437374	0.0435773	-0.00125127	2	1.34419e-05	-5.45269e-08
2	0	0	0	1	33.5563	0.0207365	0.0206097	-0.00163438	2	1.27453e-05	-3.3684e-08
2	0	0	0	1	34.0163	-0.00226441	-0.00245965	-0.00137443	2	1.2041e-05	3.38063e-09
2	0	0	0	1	34.4763	-0.0252654	-0.0254728	-0.00105878	2	1.14844e-05	2.69703e-08
2	0	0	0	1	34.9363	-0.0482663	-0.0483949	-0.000859844	2	1.10461e-05	4.16121e-08
2	0	0	0	1	35.3963	-0.0712672	-0.0714133	-0.000730682	2	1.06821e-05	5.21804e-08
2	0	0	0	1	35.8563	-0.0942682	-0.0944096	-0.00064126	2	1.0367e-05	6.05411e-08
2	0	0	1	1	36.3165	-0.117269	-0.117389	-0.000579475	2	1.00863e-05	6.80239e-08
2	0	0	1	1	36.7765	-0.14027	-0.140376	-0.000530495	2	9.83075e-06	7.44685e-08
2	0	0	1	1	37.2365	-0.163271	-0.1634	-0.000494017	2	9.59486e-06	8.07225e-08
2	0	0	1	1	37.6965	-0.186272	-0.186372	-0.000465376	2	9.37402e-06	8.67332e-08
2	1	0	1	0	38.1469	-0.191222	-0.191291	-0.00029364	2	9.19242e-06	5.61708e-08
2	1	0	1	0	38.6069	-0.168221	-0.168335	-0.000238417	2	9.07226e-06	4.01341e-08
2	1	0	1	0	39.0669	-0.14522	-0.145317	-0.000204997	2	8.9721e-06	2.97895e-08
2	1	0	1	0	39.5269	-0.122219	-0.12236	-0.000175507	2	8.88639e-06	2.1475e-08
2	1	0	1	0	39.9869	-0.0992183	-0.0993296	-0.000152307	3	8.8122e-06	1.51286e-08
2	1	0	0	0	40.4471	-0.0762174	-0.0764044	-0.000133838	3	8.74744e-06	1.02258e-08
2	1	0	0	0	40.9071	-0.0532165	-0.0533732	-0.000113542	3	8.69147e-06	6.06011e-09
2	1	0	0	0	41.3671	-0.0302156	-0.0303505	-9.02221e-05	3	8.64551e-06	2.73828e-09
2	1	0	0	0	41.8271	-0.00721462	-0.00734895	-3.38935e-05	3	8.61636e-06	2.49082e-10
2	1	0	0	0	42.2871	0.0157863	0.0157416	0.00012365	3	8.63148e-06	1.94644e-09
2	1	0	0	0	42.7471	0.0387872	0.0387166	0.000566898	3	8.77715e-06	2.19484e-08
2	1	0	0	0	43.2071	0.0617882	0.0616821	0.00132941	3	9.2094e-06	8.20011e-08
2	1	0	0	0	43.6671	0.0847891	0.0846783	0.00183528	3	9.96221e-06	1.55408e-07
2	1	0	0	0	44.1271	0.10779	0.107738	0.00176243	3	1.08072e-05	1.8988e-07
2	1	0	0	0	44.5871	0.130791	0.130734	0.00149676	3	1.15582e-05	1.95677e-07
2	1	0	1	0	45.0473	0.153792	0.153769	0.00128688	3	1.21972e-05	1.97883e-07
2	1	0	1	0	45.5073	0.176793	0.176752	0.00114449	3	1.27552e-05	2.02292e-07
2	1	0	1	0	45.9673	0.199794	0.19967	0.00104305	3	1.32579e-05	2.08266e-07
2	1	0	1	0	46.4273	0.222795	0.222679	0.000974001	3	1.3722e-05	2.1689e-07
2	1	0	1	0	46.8873	0.245796	0.245725	0.000917855	3	1.41575e-05	2.2554e-07
2	1	0	1	0	47.3473	0.268796	0.268683	0.000878206	3	1.45712e-05	2.35959e-07
2	1	0	1	0	47.8073	0.291797	0.291673	0.000855669	3	1.49702e-05	2.49575e-07
2	0	0	1	0	48.2469	0.286247	0.28612	0.000657041	3	1.5301e-05	1.87993e-07
2	0	0	1	0	48.7069	0.263246	0.263081	0.000590621	3	1.55855e-05	1.55381e-07
2	0	0	1	0	49.1669	0.240245	0.240096	0.000544885	3	1.58454e-05	1.30825e-07
2	0	0	1	0	49.6269	0.217244	0.21714	0.000508339	3	1.60868e-05	1.10381e-07
2	0	0	1	0	50.0869	0.194244	0.194113	0.000473551	3	1.6312e-05	9.19224e-08
2	0	0	1	0	50.5469	0.171243	0.171074	0.000437017	3	1.65212e-05	7.47623e-08
2	0	0	1	0	51.0069	0.148242	0.148014	0.000398884	3	1.67131e-05	5.90406e-08
2	0	0	0	0	51.4671	0.125241	0.125081	0.000335543	3	1.68826e-05	4.19699e-08
2	0	0	0	0	51.9271	0.10224	0.102088	0.000211565	3	1.70121e-05	2.15982e-08
2	0	0	0	0	52.3871	0.0792389	0.0791137	-0.00010122	3	1.70477e-05	-8.00787e-09
2	0	0	0	0	52.8471	0.0562379	0.0561546	-0.000782421	3	1.68581e-05	-4.39366e-08
2	0	0	0	0	53.3071	0.033237	0.0330842	-0.00151965	3	1.63118e-05	-5.02763e-08
2	0	0	0	0	53.7671	0.0102361	0.0101261	-0.00157165	3	1.55719e-05	-1.59148e-08
2	0	0	0	0	54.2271	-0.0127648	-0.0128563	-0.0012394	3	1.49235e-05	1.59341e-08
2	0	0	0	0	54.6871	-0.0357658	-0.0358992	-0.000976914	3	1.44175e-05	3.50704e-08
2	0	0	0	0	55.1471	-0.0587667	-0.0589155	-0.000813902	3	1.40076e-05	4.79515e-08
2	0	0	0	0	55.6071	-0.0817677	-0.0818768	-0.000705242	3	1.36589e-05	5.7743e-08
2	0	0	1	0	56.0673	-0.104769	-0.104902	-0.000630815	3	1.33518e-05	6.61736e-08
2	0	0	1	0	56.5273	-0.12777	-0.127898	-0.000572807	3	1.30748e-05	7.32608e-08
2	0	0	1	0	56.9873	-0.15077	-0.150842	-0.000530249	3	1.28205e-05	7.99839e-08
2	0	0	1	0	57.4473	-0.173771	-0.173894	-0.000495758	3	1.25843e-05	8.62092e-08
2	0	0	1	0	57.9073	-0.196772	-0.196907	-0.000468867	3	1.23616e-05	9.2323e-08
2	1	0	1	1	58.3577	-0.180722	-0.180832	-0.00027831	3	1.22129e-05	5.03273e-08
2	1	0	1	1	58.8177	-0.157721	-0.157818	-0.000236674	3	1.20969e-05	3.73514e-08
2	1	0	1	1	59.2777	-0.13472	-0.134859	-0.000200903	3	1.19979e-05	2.70935e-08
2	1	0	1	1	59.7377	-0.111719	-0.11179	-0.00017633	3	1.19121e-05	1.9712e-08
2	1	0	0	1	60.1979	-0.0887179	-0.0888301	-0.000156637	3	1.1837e-05	1.39141e-08
2	1	0	0	1	60.6579	-0.065717	-0.0658657	-0.000135687	3	1.1771e-05	8.93715e-09
2	1	0	0	1	60.7086	-0.0631419	-0.0632377	-0.000135313	3	1.17643e-05	8.55687e-09