File: AutoAnalysis Examples/EC/C003C-10ppb-B_C01.mpt
EC-Lab ASCII FILE
Nb header lines : 59

Cyclic Voltammetry

Run on channel : 1 (SN 22398)
User :
CE vs. WE compliance from -10 V to 10 V
Electrode connection : standard
Ewe ctrl range : min = -1.00 V, max = 1.00 V
Safety Limits :
	Ewe min = -2.00 V
	Ewe max = 2.00 V
	|I| = 50.000 mA
	for t > 10 ms
Acquisition started on : 11/21/2018 11:28:43
Technique started on : 11/21/2018 11:28:43
Saved on :
	File : C003C-10ppb-B_C01.mpr
	Directory : \\ECCOMPUTER\Users\Lab User\Google Drive\Electrochemical Data\EC-Lab\Data\FREDsense\Tim\2018.11.21 - EC comparison to High Throughput\
	Host : 172.16.1.30
Device : SP-50 (SN 0301030103010301)
Address : USB
EC-Lab for windows v11.02 (software)
Internet server v11.02 (firmware)
Command interpretor v11.02 (firmware)
Electrode material : Au/Pd
Initial state :
Electrolyte : NaCl (0.2M)
Comments : Fe(CN)63-/Fe(CN)64- 5.10-3 M
Reference electrode : SCE Saturated Calomel Electrode (0.241 V)
Electrode surface area : 0.001 cm²
Characteristic mass : 0.001 g
Equivalent Weight : 0.000 g/eq.
Density : 0.000 g/cm3
Cycle Definition : Charge/Discharge alternance
Ei (V)              -0.100
vs.                 Ref
dE/dt               50.000
dE/dt unit          mV/s
E1 (V)              0.300
vs.                 Ref
Step percent        50
N                   10
E range min (V)     -1.000
E range max (V)     1.000
I Range             Auto
I Range min         Unset
I Range max         Unset
I Range init        Unset
Bandwidth           5
E2 (V)              -0.200
vs.                 Ref
nc cycles           2
Reverse Scan        1
Ef (V)              0.000
vs.                 Eoc

mode	ox/red	error	control changes	counter inc.	time/s	control/V	Ewe/V	<I>/mA	cycle number	(Q-Qo)/C	P/W
2	1	0	1	0	0.000000000000000E+000	-0.0984851	-0.0987012	-7.55976e-05	1	0.0000000E+000	7.46157e-09
2	1	0	1	0	0.4865	-0.0741592	-0.0744191	4.15457e-05	1	1.54799e-08	-3.09179e-09
2	1	0	1	0	0.9465	-0.0511582	-0.0513306	5.20999e-05	1	3.86871e-08	-2.67432e-09
2	1	0	1	0	1.4065	-0.0281573	-0.0283863	6.70525e-05	1	6.71359e-08	-1.90337e-09
2	1	0	1	0	1.8665	-0.00515635	-0.00531693	0.000110198	1	1.07244e-07	-5.85918e-10
2	1	0	1	0	2.3265	0.0178446	0.0176909	0.000272361	1	1.89116e-07	4.81832e-09
2	1	0	1	0	2.7865	0.0408455	0.0406214	0.000768644	1	4.13055e-07	3.12234e-08
2	1	0	1	0	3.2465	0.0638464	0.0637311	0.00158938	1	9.54278e-07	1.01293e-07
2	1	0	1	0	3.7065	0.0868473	0.0866552	0.00204606	1	1.81865e-06	1.77302e-07
2	1	0	1	0	4.1665	0.109848	0.109656	0.00193667	1	2.74958e-06	2.12367e-07
2	1	0	1	0	4.6265	0.132849	0.132678	0.00168381	1	3.58301e-06	2.23406e-07
2	1	0	0	0	5.0867	0.15585	0.155631	0.00148045	1	4.30946e-06	2.30405e-07
2	1	0	0	0	5.5467	0.178851	0.17871	0.00133452	1	4.95624e-06	2.38492e-07
2	1	0	0	0	6.0067	0.201852	0.201666	0.00122877	1	5.54618e-06	2.47801e-07
2	1	0	0	0	6.4667	0.224853	0.224717	0.00115984	1	6.09628e-06	2.60636e-07
2	1	0	0	0	6.9267	0.247854	0.24771	0.00110146	1	6.617e-06	2.72844e-07
2	1	0	0	0	7.3867	0.270855	0.270766	0.0010627	1	7.11572e-06	2.87742e-07
2	1	0	0	0	7.8467	0.293856	0.293694	0.00103484	1	7.59894e-06	3.03928e-07
2	0	0	1	0	8.2953	0.283705	0.283528	0.000816169	1	8.00726e-06	2.31406e-07
2	0	0	1	0	8.7553	0.260704	0.260505	0.000733141	1	8.36123e-06	1.90987e-07
2	0	0	1	0	9.2153	0.237703	0.237528	0.000683549	1	8.68651e-06	1.62362e-07
2	0	0	1	0	9.6753	0.214702	0.214449	0.000635883	1	8.98812e-06	1.36365e-07
2	0	0	1	0	10.1353	0.191702	0.191477	0.000593905	1	9.27024e-06	1.13719e-07
2	0	0	1	0	10.5953	0.168701	0.16848	0.000553555	1	9.53317e-06	9.32629e-08
2	0	0	0	0	11.0555	0.1457	0.145447	0.00049948	1	9.77482e-06	7.26477e-08
2	0	0	0	0	11.5155	0.122699	0.122575	0.000424002	1	9.98797e-06	5.19722e-08
2	0	0	0	0	11.9755	0.0996979	0.0994594	0.000270585	1	1.01517e-05	2.69123e-08
2	0	0	0	0	12.4355	0.0766969	0.0764791	-9.71747e-05	1	1.02033e-05	-7.43183e-09
2	0	0	0	0	12.8955	0.053696	0.0534892	-0.000835622	1	1.00004e-05	-4.46968e-08
2	0	0	0	0	13.3555	0.0306951	0.0304665	-0.00151891	1	9.43549e-06	-4.62758e-08
2	0	0	0	0	13.8155	0.00769417	0.00749997	-0.0014789	1	8.71988e-06	-1.10917e-08
2	0	0	0	0	14.2755	-0.0153068	-0.0155323	-0.00115176	1	8.11316e-06	1.78895e-08
2	0	0	0	0	14.7355	-0.0383077	-0.0385476	-0.000901065	1	7.64439e-06	3.47339e-08
2	0	0	0	0	15.1955	-0.0613086	-0.0615269	-0.000738113	1	7.2689e-06	4.54138e-08
2	0	0	0	0	15.6555	-0.0843096	-0.0845899	-0.00063414	1	6.95347e-06	5.36418e-08
2	0	0	1	0	16.1157	-0.107311	-0.107567	-0.000560469	1	6.67886e-06	6.02879e-08
2	0	0	1	0	16.5757	-0.130311	-0.130528	-0.000504355	1	6.43362e-06	6.58327e-08
2	0	0	1	0	17.0357	-0.153312	-0.15358	-0.000463066	1	6.21046e-06	7.11175e-08
2	0	0	1	0	17.4957	-0.176313	-0.176545	-0.000430698	1	6.00421e-06	7.60377e-08
2	0	0	1	0	17.9557	-0.199314	-0.199549	-0.000407907	1	5.81052e-06	8.13973e-08
2	1	0	0	1	18.4051	-0.178213	-0.178395	-0.000240585	1	5.68823e-06	4.29191e-08
2	1	0	0	1	18.8651	-0.155212	-0.155435	-0.000202033	1	5.58852e-06	3.1403e-08
2	1	0	0	1	19.3251	-0.132212	-0.132444	-0.000172317	1	5.50415e-06	2.28224e-08
2	1	0	0	1	19.7851	-0.109211	-0.109437	-0.000148602	1	5.43165e-06	1.62625e-08
2	1	0	1	1	20.2453	-0.0862097	-0.0864409	-0.000129862	2	5.36885e-06	1.12254e-08
2	1	0	1	1	20.7053	-0.0632087	-0.0634192	-0.000112355	2	5.31468e-06	7.12547e-09
2	1	0	1	1	21.1653	-0.0402078	-0.0404442	-9.12237e-05	2	5.26929e-06	3.68947e-09
2	1	0	1	1	21.6253	-0.0172068	-0.0174172	-5.54153e-05	2	5.23616e-06	9.65179e-10
2	1	0	1	1	22.0853	0.00579409	0.00559493	4.16199e-05	2	5.23046e-06	2.3286e-10
2	1	0	1	1	22.5453	0.028795	0.0285933	0.000331855	2	5.30638e-06	9.48881e-09
2	1	0	1	1	23.0053	0.0517959	0.0516425	0.000982897	2	5.59621e-06	5.07592e-08
2	1	0	1	1	23.4653	0.0747969	0.0745952	0.00169262	2	6.22438e-06	1.26261e-07
2	1	0	1	1	23.9253	0.0977978	0.0976498	0.00188319	2	7.07162e-06	1.83893e-07
2	1	0	1	1	24.3853	0.120799	0.120669	0.00168649	2	7.90031e-06	2.03508e-07
2	1	0	1	1	24.8453	0.1438	0.143618	0.00145248	2	8.62203e-06	2.08602e-07
2	1	0	0	1	25.3055	0.166801	0.166661	0.00127576	2	9.24904e-06	2.12619e-07
2	1	0	0	1	25.7655	0.189801	0.189656	0.00115028	2	9.80691e-06	2.18157e-07
2	1	0	0	1	26.2255	0.212802	0.212609	0.00106124	2	1.03159e-05	2.2563e-07
2	1	0	0	1	26.6855	0.235803	0.235596	0.000996885	2	1.07897e-05	2.34862e-07
2	1	0	0	1	27.1455	0.258804	0.25864	0.000944896	2	1.12369e-05	2.44388e-07
2	1	0	0	1	27.6055	0.281805	0.281659	0.000912331	2	1.1665e-05	2.56966e-07
2	0	0	0	1	28.0551	0.295706	0.295483	0.000769027	2	1.20624e-05	2.27234e-07
2	0	0	0	1	28.5151	0.272705	0.272509	0.000673953	2	1.23904e-05	1.83658e-07
2	0	0	0	1	28.9751	0.249704	0.249499	0.000621994	2	1.26868e-05	1.55187e-07
2	0	0	0	1	29.4351	0.226703	0.226471	0.000580945	2	1.29618e-05	1.31567e-07
2	0	0	0	1	29.8951	0.203702	0.203499	0.000539809	2	1.32188e-05	1.09851e-07
2	0	0	0	1	30.3551	0.180701	0.180522	0.000504041	2	1.34587e-05	9.09904e-08
2	0	0	0	1	30.8151	0.1577	0.157437	0.000462444	2	1.36803e-05	7.28056e-08
2	0	0	1	1	31.2753	0.134699	0.134449	0.000405559	2	1.38802e-05	5.4527e-08
2	0	0	1	1	31.7353	0.111698	0.111471	0.000311928	2	1.40469e-05	3.47708e-08
2	0	0	1	1	32.1953	0.0886974	0.0884691	9.35696e-05	2	1.41466e-05	8.27802e-09
2	0	0	1	1	32.6553	0.0656965	0.0654973	-0.000417984	2	1.4086e-05	-2.73768e-08
2	0	0	1	1	33.1153	0.0426956	0.0424745	-0.00122727	2	1.37086e-05	-5.21279e-08
2	0	0	1	1	33.5753	0.0196946	0.0194963	-0.0016226	2	1.3022e-05	-3.16347e-08
2	0	0	1	1	34.0353	-0.00330628	-0.00353062	-0.00139555	2	1.23145e-05	4.92715e-09
2	0	0	1	1	34.4953	-0.0263072	-0.02653	-0.00108922	2	1.17457e-05	2.88971e-08
2	0	0	1	1	34.9553	-0.0493081	-0.0495581	-0.000878204	2	1.12961e-05	4.35221e-08
2	0	0	1	1	35.4153	-0.0723091	-0.0725744	-0.000743107	2	1.0924e-05	5.39306e-08
2	0	0	1	1	35.8753	-0.09531	-0.0955622	-0.000651636	2	1.06035e-05	6.22717e-08
2	0	0	0	1	36.3355	-0.118311	-0.118531	-0.000582771	2	1.0319e-05	6.90763e-08
2	0	0	0	1	36.7955	-0.141312	-0.141518	-0.000533581	2	1.00613e-05	7.5511e-08
2	0	0	0	1	37.2555	-0.164313	-0.164541	-0.000490811	2	9.82458e-06	8.07586e-08
2	0	0	0	1	37.7155	-0.187314	-0.187606	-0.000462561	2	9.60408e-06	8.67794e-08
2	1	0	1	0	38.1649	-0.190214	-0.190392	-0.00031087	2	9.42352e-06	5.91873e-08
2	1	0	1	0	38.6249	-0.167213	-0.167402	-0.000258325	2	9.29512e-06	4.3244e-08
2	1	0	1	0	39.0849	-0.144212	-0.144436	-0.000223085	2	9.18587e-06	3.22215e-08
2	1	0	1	0	39.5449	-0.121211	-0.12143	-0.000196549	2	9.09091e-06	2.38669e-08
2	1	0	0	0	40.0051	-0.0982101	-0.0984107	-0.000173078	3	9.00755e-06	1.70328e-08
2	1	0	0	0	40.4651	-0.0752092	-0.0754421	-0.000152804	3	8.93392e-06	1.15278e-08
2	1	0	0	0	40.9251	-0.0522083	-0.0523695	-0.000131579	3	8.86938e-06	6.89072e-09
2	1	0	0	0	41.3851	-0.0292073	-0.0293595	-0.000103906	3	8.81548e-06	3.05064e-09
2	1	0	0	0	41.8451	-0.0062064	-0.00647989	-4.78463e-05	3	8.77985e-06	3.10039e-10
2	1	0	0	0	42.3051	0.0167945	0.0165619	0.000119451	3	8.79117e-06	1.97833e-09
2	1	0	0	0	42.7651	0.0397955	0.039574	0.000560045	3	8.93501e-06	2.21632e-08
2	1	0	0	0	43.2251	0.0627964	0.0625999	0.00129318	3	9.35821e-06	8.09531e-08
2	1	0	0	0	43.6851	0.0857973	0.0855993	0.00180081	3	1.0092e-05	1.54148e-07
2	1	0	0	0	44.1451	0.108798	0.108584	0.00177548	3	1.09316e-05	1.92789e-07
2	1	0	0	0	44.6051	0.131799	0.131609	0.00154436	3	1.16981e-05	2.03252e-07
2	1	0	1	0	45.0653	0.1548	0.15461	0.00133776	3	1.23604e-05	2.06831e-07
2	1	0	1	0	45.5253	0.177801	0.177627	0.00118648	3	1.29405e-05	2.1075e-07
2	1	0	1	0	45.9853	0.200802	0.200624	0.00107918	3	1.34616e-05	2.1651e-07
2	1	0	1	0	46.4453	0.223803	0.223626	0.00100197	3	1.39407e-05	2.24066e-07
2	1	0	1	0	46.9053	0.246804	0.246592	0.00094027	3	1.43882e-05	2.31863e-07
2	1	0	1	0	47.3653	0.269805	0.269646	0.000895367	3	1.4811e-05	2.41432e-07
2	1	0	1	0	47.8253	0.292806	0.292669	0.000864227	3	1.52166e-05	2.52933e-07
2	0	0	1	0	48.2749	0.284705	0.28455	0.000682871	3	1.55604e-05	1.94311e-07
2	0	0	1	0	48.7349	0.261704	0.261473	0.000621701	3	1.58582e-05	1.62558e-07
2	0	0	1	0	49.1949	0.238703	0.238504	0.000576841	3	1.61322e-05	1.37579e-07
2	0	0	1	0	49.6549	0.215703	0.215531	0.000538074	3	1.63876e-05	1.15972e-07
2	0	0	1	0	50.1149	0.192702	0.192515	0.00050245	3	1.66259e-05	9.67291e-08
2	0	0	1	0	50.5749	0.169701	0.169491	0.000462768	3	1.68469e-05	7.8435e-08
2	0	0	0	0	51.0351	0.1467	0.146461	0.000417811	3	1.70488e-05	6.1193e-08
2	0	0	0	0	51.4951	0.123699	0.123474	0.000349547	3	1.72253e-05	4.31601e-08
2	0	0	0	0	51.9551	0.100698	0.100485	0.000212909	3	1.73579e-05	2.13941e-08
2	0	0	0	0	52.4151	0.077697	0.077535	-0.000107082	3	1.73924e-05	-8.30263e-09
2	0	0	0	0	52.8751	0.0546961	0.0544783	-0.000780694	3	1.72011e-05	-4.25309e-08
2	0	0	0	0	53.3351	0.0316951	0.0314535	-0.00150208	3	1.66605e-05	-4.72455e-08
2	0	0	0	0	53.7951	0.00869421	0.00844984	-0.00156812	3	1.59262e-05	-1.32504e-08
2	0	0	0	0	54.2551	-0.0143067	-0.0145655	-0.00126211	3	1.52712e-05	1.83832e-08
2	0	0	0	0	54.7151	-0.0373077	-0.0374885	-0.000999478	3	1.47543e-05	3.7469e-08
2	0	0	0	0	55.1751	-0.0603086	-0.0605452	-0.000828977	3	1.43357e-05	5.01905e-08
2	0	0	0	0	55.6351	-0.0833095	-0.0835361	-0.00071718	3	1.39808e-05	5.99104e-08
2	0	0	1	0	56.0953	-0.10631	-0.106549	-0.000635018	3	1.36696e-05	6.76607e-08
2	0	0	1	0	56.5553	-0.129311	-0.129558	-0.000577634	3	1.33899e-05	7.48373e-08
2	0	0	1	0	57.0153	-0.152312	-0.152554	-0.000528937	3	1.31344e-05	8.06916e-08
2	0	0	1	0	57.4753	-0.175313	-0.175565	-0.000493861	3	1.28983e-05	8.67045e-08
2	0	0	1	0	57.9353	-0.198314	-0.198518	-0.000468362	3	1.26767e-05	9.29784e-08
2	1	0	0	1	58.3847	-0.179213	-0.179415	-0.000295892	3	1.25268e-05	5.30875e-08
2	1	0	0	1	58.8447	-0.156213	-0.15645	-0.000253349	3	1.24024e-05	3.96365e-08
2	1	0	0	1	59.3047	-0.133212	-0.133432	-0.000221925	3	1.22945e-05	2.96118e-08
2	1	0	0	1	59.7647	-0.110211	-0.11045	-0.000196617	3	1.22e-05	2.17163e-08
2	1	0	1	1	60.2249	-0.0872097	-0.08743	-0.000174273	3	1.21162e-05	1.52366e-08
2	1	0	1	1	60.6849	-0.0642088	-0.0643733	-0.000154606	3	1.2042e-05	9.95247e-09
2	1	0	0	1	60.8042	-0.0582335	-0.0585331	-0.000157824	3	1.20242e-05	9.23791e-09