File: AutoAnalysis Examples/EC/C003C-5ppb-A_C01.mpt
EC-Lab ASCII FILE
Nb header lines : 59

Cyclic Voltammetry

Run on channel : 1 (SN 22398)
User :
CE vs. WE compliance from -10 V to 10 V
Electrode connection : standard
Ewe ctrl range : min = -1.00 V, max = 1.00 V
Safety Limits :
	Ewe min = -2.00 V
	Ewe max = 2.00 V
	|I| = 50.000 mA
	for t > 10 ms
Acquisition started on : 11/21/2018 10:27:57
Technique started on : 11/21/2018 10:27:57
Saved on :
	File : C003C-5ppb-A_C01.mpr
	Directory : \\ECCOMPUTER\Users\Lab User\Google Drive\Electrochemical Data\EC-Lab\Data\FREDsense\Tim\2018.11.21 - EC comparison to High Throughput\
	Host : 172.16.1.30
Device : SP-50 (SN 0301030103010301)
Address : USB
EC-Lab for windows v11.02 (software)
Internet server v11.02 (firmware)
Command interpretor v11.02 (firmware)
Electrode material : Au/Pd
Initial state :
Electrolyte : NaCl (0.2M)
Comments : Fe(CN)63-/Fe(CN)64- 5.10-3 M
Reference electrode : SCE Saturated Calomel Electrode (0.241 V)
Electrode surface area : 0.001 cm²
Characteristic mass : 0.001 g
Equivalent Weight : 0.000 g/eq.
Density : 0.000 g/cm3
Cycle Definition : Charge/Discharge alternance
Ei (V)              -0.100
vs.                 Ref
dE/dt               50.000
dE/dt unit          mV/s
E1 (V)              0.300
vs.                 Ref
Step percent        50
N                   10
E range min (V)     -1.000
E range max (V)     1.000
I Range             Auto
I Range min         Unset
I Range max         Unset
I Range init        Unset
Bandwidth           5
E2 (V)              -0.200
vs.                 Ref
nc cycles           2
Reverse Scan        1
Ef (V)              0.000
vs.                 Eoc

mode	ox/red	error	control changes	counter inc.	time/s	control/V	Ewe/V	<I>/mA	cycle number	(Q-Qo)/C	P/W
2	1	0	1	0	0.000000000000000E+000	-0.0984999	-0.0986693	-9.46738e-05	1	0.0000000E+000	9.3414e-09
2	1	0	1	0	0.4865	-0.0741741	-0.0742526	5.70706e-05	1	2.09005e-08	-4.23763e-09
2	1	0	1	0	0.9465	-0.0511733	-0.0512203	7.03503e-05	1	5.13215e-08	-3.60336e-09
2	1	0	1	0	1.4065	-0.0281725	-0.0282209	8.7827e-05	1	8.78339e-08	-2.47856e-09
2	1	0	1	0	1.8665	-0.0051717	-0.00530522	0.00013201	1	1.37065e-07	-7.00341e-10
2	1	0	1	0	2.3265	0.0178291	0.0177345	0.000302237	1	2.30147e-07	5.36002e-09
2	1	0	1	0	2.7865	0.0408299	0.0407498	0.00084138	1	4.75476e-07	3.42861e-08
2	1	0	1	0	3.2465	0.0638307	0.0637587	0.00171279	1	1.06364e-06	1.09205e-07
2	1	0	1	0	3.7065	0.0868315	0.086809	0.00209377	1	1.97183e-06	1.81758e-07
2	1	0	1	0	4.1665	0.109832	0.109769	0.0018849	1	2.89886e-06	2.06904e-07
2	1	0	1	0	4.6265	0.132833	0.132682	0.00160649	1	3.70034e-06	2.13152e-07
2	1	0	1	0	5.0865	0.155834	0.155736	0.00141328	1	4.39279e-06	2.20099e-07
2	1	0	1	0	5.5465	0.178835	0.178785	0.00128419	1	5.01252e-06	2.29594e-07
2	1	0	0	0	6.0067	0.201835	0.201753	0.00119605	1	5.58308e-06	2.41307e-07
2	1	0	0	0	6.4667	0.224836	0.224723	0.00113607	1	6.11946e-06	2.553e-07
2	1	0	0	0	6.9267	0.247837	0.247735	0.00108777	1	6.6314e-06	2.69478e-07
2	1	0	0	0	7.3867	0.270838	0.270772	0.00105555	1	7.12555e-06	2.85815e-07
2	1	0	0	0	7.8467	0.293839	0.293724	0.0010372	1	7.6079e-06	3.04651e-07
2	0	0	1	0	8.2861	0.284188	0.284021	0.000786631	1	8.00154e-06	2.23419e-07
2	0	0	1	0	8.7461	0.261188	0.261093	0.000700081	1	8.34207e-06	1.82787e-07
2	0	0	1	0	9.2061	0.238187	0.238039	0.00064265	1	8.64928e-06	1.52976e-07
2	0	0	1	0	9.6661	0.215186	0.215077	0.000601392	1	8.93417e-06	1.29345e-07
2	0	0	1	0	10.1261	0.192185	0.192044	0.000560999	1	9.20024e-06	1.07737e-07
2	0	0	0	0	10.5863	0.169184	0.169033	0.000522028	1	9.44843e-06	8.82402e-08
2	0	0	0	0	11.0463	0.146184	0.146061	0.000474143	1	9.67733e-06	6.9254e-08
2	0	0	0	0	11.5063	0.123183	0.123016	0.000408391	1	9.88116e-06	5.02388e-08
2	0	0	0	0	11.9663	0.100182	0.100068	0.00026226	1	1.0039e-05	2.62439e-08
2	0	0	0	0	12.4263	0.0771812	0.0770919	-0.000126905	1	1.00831e-05	-9.78334e-09
2	0	0	0	0	12.8863	0.0541804	0.0541084	-0.00092577	1	9.85371e-06	-5.00919e-08
2	0	0	0	0	13.3463	0.0311796	0.0310623	-0.00159187	1	9.24588e-06	-4.94472e-08
2	0	0	0	0	13.8063	0.00817876	0.00810854	-0.00145853	1	8.52007e-06	-1.18265e-08
2	0	0	0	0	14.2663	-0.014822	-0.0149661	-0.00110498	1	7.93193e-06	1.65373e-08
2	0	0	0	0	14.7263	-0.0378228	-0.0379518	-0.00086762	1	7.48214e-06	3.29277e-08
2	0	0	0	0	15.1863	-0.0608237	-0.0609809	-0.000719146	1	7.11931e-06	4.38541e-08
2	0	0	0	0	15.6463	-0.0838244	-0.0839898	-0.000620982	1	6.81165e-06	5.21561e-08
2	0	0	1	0	16.1065	-0.106825	-0.106925	-0.000554224	1	6.54145e-06	5.92602e-08
2	0	0	1	0	16.5665	-0.129826	-0.129963	-0.000503598	1	6.29823e-06	6.54492e-08
2	0	0	1	0	17.0265	-0.152827	-0.152897	-0.000465332	1	6.07512e-06	7.11478e-08
2	0	0	1	0	17.4865	-0.175828	-0.175976	-0.000435316	1	5.86732e-06	7.6605e-08
2	0	0	1	0	17.9465	-0.198828	-0.198949	-0.000416145	1	5.67065e-06	8.27915e-08
2	1	0	0	1	18.3959	-0.178728	-0.178839	-0.000222725	1	5.55369e-06	3.98319e-08
2	1	0	0	1	18.8559	-0.155727	-0.155792	-0.000181822	1	5.46303e-06	2.83264e-08
2	1	0	0	1	19.3159	-0.132726	-0.132778	-0.0001505	1	5.38826e-06	1.99831e-08
2	1	0	0	1	19.7759	-0.109725	-0.109842	-0.000128627	1	5.32552e-06	1.41287e-08
2	1	0	1	1	20.2361	-0.0867246	-0.0868532	-0.000109601	2	5.27243e-06	9.51922e-09
2	1	0	1	1	20.6961	-0.0637238	-0.0638029	-9.08015e-05	2	5.22781e-06	5.7934e-09
2	1	0	1	1	21.1561	-0.0407229	-0.0407759	-7.15231e-05	2	5.19166e-06	2.91642e-09
2	1	0	1	1	21.6161	-0.0177221	-0.0178051	-3.65113e-05	2	5.1671e-06	6.5009e-10
2	1	0	1	1	22.0761	0.00527866	0.00522288	5.62227e-05	2	5.16882e-06	2.93644e-10
2	1	0	1	1	22.5361	0.0282795	0.0282127	0.000357073	2	5.25307e-06	1.0074e-08
2	1	0	1	1	22.9961	0.0512802	0.0512026	0.00105902	2	5.56505e-06	5.42244e-08
2	1	0	1	1	23.4561	0.074281	0.0741946	0.00179189	2	6.23794e-06	1.32948e-07
2	1	0	1	1	23.9161	0.0972818	0.0971791	0.00189407	2	7.1117e-06	1.84064e-07
2	1	0	1	1	24.3761	0.120283	0.12023	0.00162649	2	7.92609e-06	1.95554e-07
2	1	0	1	1	24.8361	0.143283	0.143122	0.00138177	2	8.61695e-06	1.97761e-07
2	1	0	1	1	25.2961	0.166284	0.166191	0.00121807	2	9.21392e-06	2.02433e-07
2	1	0	0	1	25.7563	0.189285	0.189158	0.00110324	2	9.74801e-06	2.08686e-07
2	1	0	0	1	26.2163	0.212286	0.212226	0.00102699	2	1.02384e-05	2.17955e-07
2	1	0	0	1	26.6763	0.235287	0.235183	0.00097047	2	1.06982e-05	2.28238e-07
2	1	0	0	1	27.1363	0.258287	0.258197	0.000926431	2	1.11352e-05	2.39202e-07
2	1	0	0	1	27.5963	0.281288	0.281159	0.000901639	2	1.15566e-05	2.53504e-07
2	0	0	0	1	28.0367	0.296689	0.296524	0.00074889	2	1.19435e-05	2.22064e-07
2	0	0	0	1	28.4967	0.273688	0.273492	0.000642753	2	1.22582e-05	1.75787e-07
2	0	0	0	1	28.9567	0.250687	0.250509	0.000585912	2	1.2539e-05	1.46776e-07
2	0	0	0	1	29.4167	0.227686	0.227585	0.00054662	2	1.2798e-05	1.24403e-07
2	0	0	0	1	29.8767	0.204686	0.204531	0.000509372	2	1.30395e-05	1.04182e-07
2	0	0	1	1	30.3369	0.181685	0.181536	0.000474314	2	1.3265e-05	8.61053e-08
2	0	0	1	1	30.7969	0.158684	0.158543	0.000437114	2	1.3474e-05	6.93015e-08
2	0	0	1	1	31.2569	0.135683	0.135521	0.000387593	2	1.36637e-05	5.25269e-08
2	0	0	1	1	31.7169	0.112682	0.112548	0.000300427	2	1.38241e-05	3.38124e-08
2	0	0	1	1	32.1769	0.0896816	0.0896141	8.69615e-05	2	1.39205e-05	7.79298e-09
2	0	0	1	1	32.6369	0.0666808	0.0666115	-0.000457366	2	1.38513e-05	-3.04658e-08
2	0	0	1	1	33.0969	0.04368	0.0435973	-0.0013114	2	1.34438e-05	-5.71735e-08
2	0	0	1	1	33.5569	0.0206792	0.0205724	-0.00165606	2	1.27257e-05	-3.40691e-08
2	0	0	1	1	34.0169	-0.0023216	-0.00245772	-0.00136282	2	1.20208e-05	3.34942e-09
2	0	0	1	1	34.4769	-0.0253224	-0.0254465	-0.00104925	2	1.14697e-05	2.66997e-08
2	0	0	1	1	34.9369	-0.0483232	-0.048482	-0.000853713	2	1.10349e-05	4.13897e-08
2	0	0	1	1	35.3969	-0.071324	-0.0714231	-0.000726354	2	1.06726e-05	5.18785e-08
2	0	0	1	1	35.8569	-0.0943248	-0.0944787	-0.000641064	2	1.03582e-05	6.05669e-08
2	0	0	0	1	36.3171	-0.117326	-0.117507	-0.000578645	2	1.00775e-05	6.79946e-08
2	0	0	0	1	36.7771	-0.140326	-0.140375	-0.000531643	2	9.82143e-06	7.46292e-08
2	0	0	0	1	37.2371	-0.163327	-0.163464	-0.000496092	2	9.58454e-06	8.10933e-08
2	0	0	0	1	37.6971	-0.186328	-0.186439	-0.000467761	2	9.36237e-06	8.7209e-08
2	1	0	1	0	38.1465	-0.191228	-0.191268	-0.000291614	2	9.18035e-06	5.57765e-08
2	1	0	1	0	38.6065	-0.168227	-0.168322	-0.000236678	2	9.06079e-06	3.9838e-08
2	1	0	1	0	39.0665	-0.145227	-0.145264	-0.00020132	2	8.96147e-06	2.92445e-08
2	1	0	1	0	39.5265	-0.122226	-0.122273	-0.000172367	2	8.87666e-06	2.10758e-08
2	1	0	1	0	39.9865	-0.099225	-0.0993065	-0.000153039	3	8.80344e-06	1.51977e-08
2	1	0	0	0	40.4467	-0.0762242	-0.076323	-0.000130079	3	8.73967e-06	9.92803e-09
2	1	0	0	0	40.9067	-0.0532234	-0.0532981	-0.000114307	3	8.6847e-06	6.09235e-09
2	1	0	0	0	41.3667	-0.0302226	-0.0302722	-8.78622e-05	3	8.63972e-06	2.65978e-09
2	1	0	0	0	41.8267	-0.00722177	-0.00731521	-3.25157e-05	3	8.61146e-06	2.3786e-10
2	1	0	0	0	42.2867	0.015779	0.0156683	0.000128882	3	8.62799e-06	2.01935e-09
2	1	0	0	0	42.7467	0.0387798	0.0387355	0.000589402	3	8.7794e-06	2.28308e-08
2	1	0	0	0	43.2067	0.0617806	0.0617317	0.00137784	3	9.2292e-06	8.50564e-08
2	1	0	0	0	43.6667	0.0847814	0.0847195	0.00186658	3	1.00027e-05	1.58135e-07
2	1	0	0	0	44.1267	0.107782	0.107794	0.00175762	3	1.08525e-05	1.89461e-07
2	1	0	0	0	44.5867	0.130783	0.130664	0.00148345	3	1.15983e-05	1.93834e-07
2	1	0	0	0	45.0467	0.153784	0.153746	0.00127763	3	1.22316e-05	1.96432e-07
2	1	0	0	0	45.5067	0.176785	0.176686	0.00113715	3	1.2786e-05	2.00918e-07
2	1	0	1	0	45.9669	0.199785	0.199632	0.00104025	3	1.32869e-05	2.07667e-07
2	1	0	1	0	46.4269	0.222786	0.222687	0.000972136	3	1.375e-05	2.16482e-07
2	1	0	1	0	46.8869	0.245787	0.24575	0.000917397	3	1.41853e-05	2.25451e-07
2	1	0	1	0	47.3469	0.268788	0.268659	0.000878934	3	1.45991e-05	2.36134e-07
2	1	0	1	0	47.8069	0.291789	0.291697	0.000857022	3	1.49986e-05	2.49991e-07
2	0	0	1	0	48.2473	0.286188	0.286109	0.000653863	3	1.53295e-05	1.87076e-07
2	0	0	1	0	48.7073	0.263188	0.263047	0.000586053	3	1.56125e-05	1.5416e-07
2	0	0	1	0	49.1673	0.240187	0.240016	0.000541824	3	1.58709e-05	1.30047e-07
2	0	0	1	0	49.6273	0.217186	0.217095	0.000505871	3	1.61108e-05	1.09822e-07
2	0	0	1	0	50.0873	0.194185	0.194027	0.000470716	3	1.63345e-05	9.13316e-08
2	0	0	0	0	50.5475	0.171184	0.171076	0.000435922	3	1.65424e-05	7.45758e-08
2	0	0	0	0	51.0075	0.148184	0.148042	0.000397397	3	1.67332e-05	5.88313e-08
2	0	0	0	0	51.4675	0.125183	0.125073	0.000334907	3	1.69021e-05	4.18879e-08
2	0	0	0	0	51.9275	0.102182	0.102053	0.000211544	3	1.70315e-05	2.15886e-08
2	0	0	0	0	52.3875	0.0791812	0.0790637	-0.000111652	3	1.7065e-05	-8.82763e-09
2	0	0	0	0	52.8475	0.0561804	0.0560845	-0.000828494	3	1.6863e-05	-4.64657e-08
2	0	0	0	0	53.3075	0.0331796	0.0330363	-0.00156886	3	1.62924e-05	-5.18293e-08
2	0	0	0	0	53.7675	0.0101788	0.0100645	-0.00157345	3	1.55405e-05	-1.58359e-08
2	0	0	0	0	54.2275	-0.012822	-0.0130134	-0.00122969	3	1.48946e-05	1.60025e-08
2	0	0	0	0	54.6875	-0.0358228	-0.0359704	-0.000970735	3	1.43922e-05	3.49177e-08
2	0	0	0	0	55.1475	-0.0588236	-0.0589592	-0.000810415	3	1.39843e-05	4.77814e-08
2	0	0	0	0	55.6075	-0.0818244	-0.0819671	-0.000703465	3	1.36365e-05	5.7661e-08
2	0	0	1	0	56.0677	-0.104825	-0.104974	-0.000630172	3	1.33297e-05	6.61516e-08
2	0	0	1	0	56.5277	-0.127826	-0.127946	-0.000575455	3	1.30523e-05	7.3627e-08
2	0	0	1	0	56.9877	-0.150827	-0.150929	-0.000531796	3	1.27973e-05	8.02636e-08
2	0	0	1	0	57.4477	-0.173828	-0.173986	-0.000499323	3	1.25601e-05	8.68752e-08
2	0	0	1	0	57.9077	-0.196828	-0.196946	-0.000473664	3	1.23361e-05	9.32863e-08
2	1	0	0	1	58.3571	-0.180728	-0.18083	-0.00027654	3	1.21882e-05	5.00067e-08
2	1	0	0	1	58.8171	-0.157727	-0.157814	-0.000231753	3	1.20731e-05	3.65738e-08
2	1	0	0	1	59.2771	-0.134726	-0.134777	-0.000200106	3	1.19753e-05	2.69697e-08
2	1	0	0	1	59.7371	-0.111725	-0.111804	-0.000172957	3	1.18908e-05	1.93373e-08
2	1	0	1	1	60.1973	-0.0887246	-0.0888399	-0.000153452	3	1.18169e-05	1.36327e-08
2	1	0	1	1	60.4812	-0.0744991	-0.0745494	-0.000142785	3	1.17759e-05	1.06445e-08