File: AutoAnalysis Examples/EC/C003B-5ppb-A_C01.mpt
EC-Lab ASCII FILE
Nb header lines : 59

Cyclic Voltammetry

Run on channel : 1 (SN 22398)
User :
CE vs. WE compliance from -10 V to 10 V
Electrode connection : standard
Ewe ctrl range : min = -1.00 V, max = 1.00 V
Safety Limits :
	Ewe min = -2.00 V
	Ewe max = 2.00 V
	|I| = 50.000 mA
	for t > 10 ms
Acquisition started on : 11/21/2018 10:17:03
Technique started on : 11/21/2018 10:17:03
Saved on :
	File : C003B-5ppb-A_C01.mpr
	Directory : \\ECCOMPUTER\Users\Lab User\Google Drive\Electrochemical Data\EC-Lab\Data\FREDsense\Tim\2018.11.21 - EC comparison to High Throughput\
	Host : 172.16.1.30
Device : SP-50 (SN 0301030103010301)
Address : USB
EC-Lab for windows v11.02 (software)
Internet server v11.02 (firmware)
Command interpretor v11.02 (firmware)
Electrode material : Au/Pd
Initial state :
Electrolyte : NaCl (0.2M)
Comments : Fe(CN)63-/Fe(CN)64- 5.10-3 M
Reference electrode : SCE Saturated Calomel Electrode (0.241 V)
Electrode surface area : 0.001 cm²
Characteristic mass : 0.001 g
Equivalent Weight : 0.000 g/eq.
Density : 0.000 g/cm3
Cycle Definition : Charge/Discharge alternance
Ei (V)              -0.100
vs.                 Ref
dE/dt               50.000
dE/dt unit          mV/s
E1 (V)              0.300
vs.                 Ref
Step percent        50
N                   10
E range min (V)     -1.000
E range max (V)     1.000
I Range             Auto
I Range min         Unset
I Range max         Unset
I Range init        Unset
Bandwidth           5
E2 (V)              -0.200
vs.                 Ref
nc cycles           2
Reverse Scan        1
Ef (V)              0.000
vs.                 Eoc

mode	ox/red	error	control changes	counter inc.	time/s	control/V	Ewe/V	<I>/mA	cycle number	(Q-Qo)/C	P/W
2	1	0	0	0	0.000000000000000E+000	-0.0985165	-0.0986027	-0.000111206	1	0.0000000E+000	1.09653e-08
2	1	0	1	0	0.4867	-0.0741908	-0.0742696	4.7668e-05	1	1.772e-08	-3.54029e-09
2	1	0	1	0	0.9467	-0.0511902	-0.0511822	5.9888e-05	1	4.43166e-08	-3.0652e-09
2	1	0	1	0	1.4067	-0.0281895	-0.0282825	7.27932e-05	1	7.58828e-08	-2.05877e-09
2	1	0	1	0	1.8667	-0.00518879	-0.00519509	9.98597e-05	1	1.15812e-07	-5.1878e-10
2	1	0	1	0	2.3267	0.0178119	0.0177492	0.000194938	1	1.80864e-07	3.45999e-09
2	1	0	1	0	2.7867	0.0408126	0.0407719	0.000481868	1	3.2828e-07	1.96467e-08
2	1	0	1	0	3.2467	0.0638132	0.0638381	0.000972484	1	6.62673e-07	6.20815e-08
2	1	0	1	0	3.7067	0.0868139	0.0867601	0.00123755	1	1.18882e-06	1.0737e-07
2	1	0	1	0	4.1667	0.109815	0.109749	0.00115248	1	1.74709e-06	1.26483e-07
2	1	0	1	0	4.6267	0.132815	0.132772	0.000991953	1	2.24088e-06	1.31703e-07
2	1	0	1	0	5.0867	0.155816	0.155765	0.000881273	1	2.67192e-06	1.37271e-07
2	1	0	1	0	5.5467	0.178817	0.178769	0.000807444	1	3.06067e-06	1.44346e-07
2	1	0	1	0	6.0067	0.201817	0.201716	0.000760928	1	3.42215e-06	1.53491e-07
2	1	0	1	0	6.4667	0.224818	0.224684	0.000733664	1	3.76639e-06	1.64843e-07
2	1	0	0	0	6.9269	0.247819	0.24773	0.000712705	1	4.10012e-06	1.76559e-07
2	1	0	0	0	7.3869	0.270819	0.270767	0.000705681	1	4.4279e-06	1.91075e-07
2	1	0	0	0	7.8469	0.29382	0.293726	0.000703863	1	4.7545e-06	2.06743e-07
2	0	0	1	0	8.2963	0.28372	0.283637	0.000480117	1	5.01461e-06	1.36179e-07
2	0	0	1	0	8.7563	0.260719	0.26063	0.000406416	1	5.21562e-06	1.05924e-07
2	0	0	0	0	9.2165	0.237718	0.237584	0.000364174	1	5.39127e-06	8.6522e-08
2	0	0	0	0	9.6765	0.214718	0.214591	0.000329712	1	5.54983e-06	7.07532e-08
2	0	0	0	0	10.1365	0.191717	0.191597	0.000304163	1	5.69498e-06	5.82766e-08
2	0	0	0	0	10.5965	0.168716	0.168676	0.000278872	1	5.82811e-06	4.70389e-08
2	0	0	0	0	11.0565	0.145716	0.145559	0.000247594	1	5.94865e-06	3.60395e-08
2	0	0	0	0	11.5165	0.122715	0.122598	0.000206471	1	6.05296e-06	2.53128e-08
2	0	0	0	0	11.9765	0.0997143	0.0995728	0.000112175	1	6.12853e-06	1.11696e-08
2	0	0	0	0	12.4365	0.0767136	0.0766242	-0.000104482	1	6.13716e-06	-8.00587e-09
2	0	0	0	0	12.8965	0.0537129	0.0536736	-0.0005449	1	5.99382e-06	-2.92467e-08
2	0	0	0	0	13.3565	0.0307123	0.0306403	-0.00091662	1	5.64304e-06	-2.80855e-08
2	0	0	0	0	13.8165	0.00771159	0.00760698	-0.000866126	1	5.21892e-06	-6.5886e-09
2	0	0	0	0	14.2765	-0.0152891	-0.0154423	-0.000676975	1	4.86389e-06	1.0454e-08
2	0	0	0	0	14.7365	-0.0382898	-0.0383865	-0.000537822	1	4.58614e-06	2.06451e-08
2	0	0	0	0	15.1965	-0.0612905	-0.0613817	-0.000453398	1	4.35834e-06	2.78304e-08
2	0	0	0	0	15.6565	-0.0842911	-0.0844479	-0.000399274	1	4.16211e-06	3.37179e-08
2	0	0	1	0	16.1167	-0.107292	-0.107395	-0.000359753	1	3.98705e-06	3.86358e-08
2	0	0	1	0	16.5767	-0.130293	-0.130381	-0.000332872	1	3.82711e-06	4.34002e-08
2	0	0	1	0	17.0367	-0.153293	-0.153381	-0.000311405	1	3.67826e-06	4.77637e-08
2	0	0	1	0	17.4967	-0.176294	-0.176412	-0.000298971	1	3.53733e-06	5.2742e-08
2	0	0	1	0	17.9567	-0.199295	-0.199388	-0.000290523	1	3.40155e-06	5.79266e-08
2	1	0	0	1	18.3961	-0.178744	-0.178762	-0.000117107	1	3.33717e-06	2.09342e-08
2	1	0	0	1	18.8561	-0.155743	-0.155804	-8.78446e-05	1	3.29212e-06	1.36865e-08
2	1	0	0	1	19.3161	-0.132743	-0.132773	-6.46712e-05	1	3.25879e-06	8.58657e-09
2	1	0	0	1	19.7761	-0.109742	-0.109835	-4.94113e-05	1	3.23392e-06	5.42708e-09
2	1	0	1	1	20.2363	-0.0867412	-0.0868268	-3.52007e-05	2	3.21573e-06	3.05636e-09
2	1	0	1	1	20.6963	-0.0637405	-0.0638263	-2.35513e-05	2	3.20322e-06	1.50319e-09
2	1	0	1	1	21.1563	-0.0407398	-0.0407633	-1.26862e-05	2	3.19612e-06	5.17131e-10
2	1	0	1	1	21.6163	-0.0177392	-0.017889	9.54744e-06	2	3.19604e-06	-1.70794e-10
2	1	0	1	1	22.0763	0.00526152	0.00525986	6.02395e-05	2	3.21098e-06	3.16851e-10
2	1	0	1	1	22.5363	0.0282622	0.0282126	0.000222319	2	3.27078e-06	6.27219e-09
2	1	0	1	1	22.9963	0.0512629	0.0512311	0.00060235	2	3.45295e-06	3.0859e-08
2	1	0	1	1	23.4563	0.0742635	0.0742337	0.00102817	2	3.83622e-06	7.63249e-08
2	1	0	1	1	23.9163	0.0972642	0.0972129	0.00112139	2	4.34665e-06	1.09013e-07
2	1	0	1	1	24.3763	0.120265	0.120214	0.000982123	2	4.83513e-06	1.18065e-07
2	1	0	1	1	24.8363	0.143266	0.143182	0.000841145	2	5.25447e-06	1.20437e-07
2	1	0	1	1	25.2963	0.166266	0.166222	0.000743983	2	5.61855e-06	1.23666e-07
2	1	0	1	1	25.7563	0.189267	0.189182	0.000676122	2	5.94536e-06	1.2791e-07
2	1	0	1	1	26.2163	0.212268	0.212166	0.000633527	2	6.24738e-06	1.34413e-07
2	1	0	1	1	26.6763	0.235268	0.235157	0.000605021	2	6.53297e-06	1.42275e-07
2	1	0	0	1	27.1365	0.258269	0.258265	0.000589551	2	6.80832e-06	1.5226e-07
2	1	0	0	1	27.5965	0.28127	0.281234	0.000584098	2	7.07876e-06	1.64268e-07
2	0	0	0	1	28.0469	0.29622	0.296122	0.000457882	2	7.33516e-06	1.35589e-07
2	0	0	0	1	28.5069	0.273219	0.273082	0.0003684	2	7.52064e-06	1.00603e-07
2	0	0	0	1	28.9669	0.250219	0.250036	0.000326033	2	7.67892e-06	8.152e-08
2	0	0	1	1	29.4271	0.227218	0.227087	0.000297694	2	7.82125e-06	6.76024e-08
2	0	0	1	1	29.8871	0.204217	0.204129	0.000273687	2	7.95153e-06	5.58674e-08
2	0	0	1	1	30.3471	0.181217	0.181072	0.000252204	2	8.07127e-06	4.56671e-08
2	0	0	1	1	30.8071	0.158216	0.158102	0.000226436	2	8.18064e-06	3.58001e-08
2	0	0	1	1	31.2671	0.135215	0.135076	0.000196381	2	8.27784e-06	2.65264e-08
2	0	0	1	1	31.7271	0.112215	0.112107	0.000144089	2	8.35662e-06	1.61533e-08
2	0	0	1	1	32.1871	0.089214	0.089122	1.54207e-05	2	8.39669e-06	1.37433e-09
2	0	0	1	1	32.6471	0.0662133	0.0661513	-0.00028979	2	8.34125e-06	-1.917e-08
2	0	0	1	1	33.1071	0.0432126	0.0430957	-0.000762913	2	8.098e-06	-3.28783e-08
2	0	0	1	1	33.5671	0.020212	0.0201186	-0.000963004	2	7.68196e-06	-1.93743e-08
2	0	0	1	1	34.0271	-0.00278872	-0.00288189	-0.000816347	2	7.26584e-06	2.35263e-09
2	0	0	1	1	34.4871	-0.0257894	-0.0258908	-0.000641634	2	6.93229e-06	1.66125e-08
2	0	0	1	1	34.9471	-0.0487901	-0.0488934	-0.000526612	2	6.66445e-06	2.57479e-08
2	0	0	1	1	35.4071	-0.0717908	-0.0719109	-0.000458272	2	6.43789e-06	3.29547e-08
2	0	0	1	1	35.8671	-0.0947915	-0.0948711	-0.000408027	2	6.23838e-06	3.87099e-08
2	0	0	0	1	36.3273	-0.117792	-0.117827	-0.000373171	2	6.05771e-06	4.39696e-08
2	0	0	0	1	36.7873	-0.140793	-0.140921	-0.000349577	2	5.89097e-06	4.92626e-08
2	0	0	0	1	37.2473	-0.163794	-0.163889	-0.000328182	2	5.7345e-06	5.37856e-08
2	0	0	0	1	37.7073	-0.186794	-0.186861	-0.000315574	2	5.58555e-06	5.89685e-08
2	1	0	1	0	38.1467	-0.191244	-0.191282	-0.000164858	2	5.47023e-06	3.15343e-08
2	1	0	1	0	38.6067	-0.168244	-0.168325	-0.000121339	2	5.40676e-06	2.04244e-08
2	1	0	1	0	39.0667	-0.145243	-0.145319	-9.53835e-05	2	5.35853e-06	1.38611e-08
2	1	0	1	0	39.5267	-0.122242	-0.12226	-7.58066e-05	2	5.32049e-06	9.26814e-09
2	1	0	1	0	39.9867	-0.0992416	-0.0993342	-6.08381e-05	3	5.29042e-06	6.04331e-09
2	1	0	0	0	40.4469	-0.0762409	-0.0762701	-4.59492e-05	3	5.26687e-06	3.50455e-09
2	1	0	0	0	40.9069	-0.0532402	-0.0532823	-3.62499e-05	3	5.24902e-06	1.93148e-09
2	1	0	0	0	41.3669	-0.0302395	-0.0303571	-2.02358e-05	3	5.2373e-06	6.143e-10
2	1	0	0	0	41.8269	-0.00723885	-0.00736304	1.02787e-05	3	5.23526e-06	-7.56827e-11
2	1	0	0	0	42.2869	0.0157618	0.0157137	9.83424e-05	3	5.2581e-06	1.54533e-09
2	1	0	0	0	42.7469	0.0387625	0.0387386	0.000347454	3	5.35397e-06	1.34599e-08
2	1	0	0	0	43.2069	0.0617632	0.0617072	0.000786608	3	5.61306e-06	4.85394e-08
2	1	0	0	0	43.6669	0.0847639	0.0846929	0.00108901	3	6.05941e-06	9.22316e-08
2	1	0	0	0	44.1269	0.107765	0.107687	0.00104815	3	6.56167e-06	1.12872e-07
2	1	0	0	0	44.5869	0.130765	0.130653	0.000893517	3	7.00969e-06	1.16741e-07
2	1	0	0	0	45.0469	0.153766	0.153705	0.000771772	3	7.3925e-06	1.18625e-07
2	1	0	0	0	45.5069	0.176767	0.176686	0.000689808	3	7.72848e-06	1.21879e-07
2	1	0	0	0	45.9669	0.199767	0.199691	0.000632474	3	8.03285e-06	1.26299e-07
2	1	0	0	0	46.4269	0.222768	0.222686	0.000593636	3	8.31576e-06	1.32195e-07
2	1	0	1	0	46.8871	0.245769	0.245695	0.00056666	3	8.58404e-06	1.39225e-07
2	1	0	1	0	47.3471	0.268769	0.268685	0.000553442	3	8.84274e-06	1.48701e-07
2	1	0	1	0	47.8071	0.29177	0.2917	0.00054975	3	9.09736e-06	1.60362e-07
2	0	0	1	0	48.2575	0.28572	0.285545	0.000380236	3	9.30544e-06	1.08575e-07
2	0	0	1	0	48.7175	0.262719	0.262605	0.000327446	3	9.4659e-06	8.59889e-08
2	0	0	1	0	49.1775	0.239718	0.239616	0.000297316	3	9.608e-06	7.12418e-08
2	0	0	0	0	49.6377	0.216718	0.216556	0.000270359	3	9.7375e-06	5.8548e-08
2	0	0	0	0	50.0977	0.193717	0.193588	0.000250176	3	9.85646e-06	4.84311e-08
2	0	0	0	0	50.5577	0.170716	0.170609	0.000228679	3	9.96557e-06	3.90147e-08
2	0	0	0	0	51.0177	0.147716	0.147604	0.000202772	3	1.00641e-05	2.99299e-08
2	0	0	0	0	51.4777	0.124715	0.124608	0.000166921	3	1.0149e-05	2.07996e-08
2	0	0	0	0	51.9377	0.101714	0.101621	9.05208e-05	3	1.02097e-05	9.19881e-09
2	0	0	0	0	52.3977	0.0787137	0.07863	-9.79695e-05	3	1.02134e-05	-7.70335e-09
2	0	0	0	0	52.8577	0.055713	0.0556009	-0.000497809	3	1.00829e-05	-2.76787e-08
2	0	0	0	0	53.3177	0.0327123	0.0326153	-0.000911859	3	9.74798e-06	-2.97406e-08
2	0	0	0	0	53.7777	0.00971165	0.00959365	-0.000926171	3	9.30933e-06	-8.88536e-09
2	0	0	0	0	54.2377	-0.013289	-0.0133453	-0.000741418	3	8.92431e-06	9.89447e-09
2	0	0	0	0	54.6977	-0.0362897	-0.0363977	-0.000594438	3	8.61865e-06	2.16362e-08
2	0	0	0	0	55.1577	-0.0592904	-0.059483	-0.000503435	3	8.36653e-06	2.99458e-08
2	0	0	0	0	55.6177	-0.0822911	-0.0823711	-0.000444743	3	8.14833e-06	3.6634e-08
2	0	0	1	0	56.0779	-0.105292	-0.105403	-0.000402759	3	7.95312e-06	4.24522e-08
2	0	0	1	0	56.5379	-0.128292	-0.128338	-0.00037153	3	7.77464e-06	4.76814e-08
2	0	0	1	0	56.9979	-0.151293	-0.151358	-0.000347427	3	7.60863e-06	5.25858e-08
2	0	0	1	0	57.4579	-0.174294	-0.174426	-0.000330053	3	7.45188e-06	5.75698e-08
2	0	0	1	0	57.9179	-0.197294	-0.197356	-0.000321076	3	7.30139e-06	6.33664e-08
2	1	0	0	1	58.3573	-0.180744	-0.180741	-0.000147416	3	7.21812e-06	2.66442e-08
2	1	0	0	1	58.8173	-0.157743	-0.157866	-0.000117758	3	7.15951e-06	1.859e-08
2	1	0	0	1	59.2773	-0.134743	-0.134768	-9.3066e-05	3	7.11322e-06	1.25423e-08
2	1	0	0	1	59.7373	-0.111742	-0.111837	-7.61387e-05	3	7.07607e-06	8.51514e-09
2	1	0	1	1	60.1975	-0.0887413	-0.0887774	-6.09777e-05	3	7.04624e-06	5.41344e-09
2	1	0	1	1	60.6575	-0.0657406	-0.0658183	-4.72987e-05	3	7.02254e-06	3.11312e-09
2	1	0	1	1	60.7178	-0.0627155	-0.0627853	-4.98476e-05	3	7.01986e-06	3.1297e-09