File: AutoAnalysis Examples/EC/C003A-10ppb-A_C01.mpt
EC-Lab ASCII FILE
Nb header lines : 59

Cyclic Voltammetry

Run on channel : 1 (SN 22398)
User :
CE vs. WE compliance from -10 V to 10 V
Electrode connection : standard
Ewe ctrl range : min = -1.00 V, max = 1.00 V
Safety Limits :
	Ewe min = -2.00 V
	Ewe max = 2.00 V
	|I| = 50.000 mA
	for t > 10 ms
Acquisition started on : 11/21/2018 10:06:01
Technique started on : 11/21/2018 10:06:01
Saved on :
	File : C003A-10ppb-A_C01.mpr
	Directory : \\ECCOMPUTER\Users\Lab User\Google Drive\Electrochemical Data\EC-Lab\Data\FREDsense\Tim\2018.11.21 - EC comparison to High Throughput\
	Host : 172.16.1.30
Device : SP-50 (SN 0301030103010301)
Address : USB
EC-Lab for windows v11.02 (software)
Internet server v11.02 (firmware)
Command interpretor v11.02 (firmware)
Electrode material : Au/Pd
Initial state :
Electrolyte : NaCl (0.2M)
Comments : Fe(CN)63-/Fe(CN)64- 5.10-3 M
Reference electrode : SCE Saturated Calomel Electrode (0.241 V)
Electrode surface area : 0.001 cm²
Characteristic mass : 0.001 g
Equivalent Weight : 0.000 g/eq.
Density : 0.000 g/cm3
Cycle Definition : Charge/Discharge alternance
Ei (V)              -0.100
vs.                 Ref
dE/dt               50.000
dE/dt unit          mV/s
E1 (V)              0.300
vs.                 Ref
Step percent        50
N                   10
E range min (V)     -1.000
E range max (V)     1.000
I Range             Auto
I Range min         Unset
I Range max         Unset
I Range init        Unset
Bandwidth           5
E2 (V)              -0.200
vs.                 Ref
nc cycles           2
Reverse Scan        1
Ef (V)              0.000
vs.                 Eoc

mode	ox/red	error	control changes	counter inc.	time/s	control/V	Ewe/V	<I>/mA	cycle number	(Q-Qo)/C	P/W
2	1	0	0	0	0.000000000000000E+000	-0.0984863	-0.0986419	-7.24182e-05	1	0.0000000E+000	7.14347e-09
2	1	0	1	0	0.4867	-0.0741606	-0.0742993	5.71306e-05	1	1.84671e-08	-4.24477e-09
2	1	0	1	0	0.9467	-0.0511598	-0.0512692	6.99281e-05	1	4.91812e-08	-3.58516e-09
2	1	0	1	0	1.4067	-0.0281591	-0.0282814	8.24077e-05	1	8.51869e-08	-2.33061e-09
2	1	0	1	0	1.8667	-0.00515831	-0.00529687	0.000108353	1	1.2965e-07	-5.7393e-10
2	1	0	1	0	2.3267	0.0178424	0.0177746	0.000197483	1	1.9775e-07	3.51019e-09
2	1	0	1	0	2.7867	0.0408432	0.0407189	0.000447723	1	3.39828e-07	1.82308e-08
2	1	0	1	0	3.2467	0.0638439	0.0637543	0.000825534	1	6.36707e-07	5.26314e-08
2	1	0	1	0	3.7067	0.0868446	0.0867071	0.000961925	1	1.06298e-06	8.34057e-08
2	1	0	1	0	4.1667	0.109845	0.109745	0.00086386	1	1.48762e-06	9.48039e-08
2	1	0	1	0	4.6267	0.132846	0.132754	0.000755062	1	1.85965e-06	1.00237e-07
2	1	0	1	0	5.0867	0.155847	0.155731	0.000681548	1	2.19017e-06	1.06138e-07
2	1	0	1	0	5.5467	0.178848	0.178744	0.000640101	1	2.49503e-06	1.14414e-07
2	1	0	1	0	6.0067	0.201848	0.201715	0.000616903	1	2.78475e-06	1.24438e-07
2	1	0	0	0	6.4669	0.224849	0.224758	0.000603689	1	3.06644e-06	1.35684e-07
2	1	0	0	0	6.9269	0.24785	0.247763	0.000601852	1	3.34462e-06	1.49117e-07
2	1	0	0	0	7.3869	0.270851	0.270788	0.000605863	1	3.62318e-06	1.64061e-07
2	1	0	0	0	7.8469	0.293851	0.29374	0.000616495	1	3.90629e-06	1.81089e-07
2	0	0	1	0	8.2853	0.284251	0.284085	0.000377822	1	4.11785e-06	1.07334e-07
2	0	0	1	0	8.7453	0.26125	0.261128	0.000302642	1	4.27141e-06	7.90284e-08
2	0	0	1	0	9.2053	0.238249	0.238067	0.000262501	1	4.40001e-06	6.24928e-08
2	0	0	1	0	9.6653	0.215249	0.215129	0.000233539	1	4.51345e-06	5.02411e-08
2	0	0	0	0	10.1255	0.192248	0.192156	0.000214515	1	4.61565e-06	4.12202e-08
2	0	0	0	0	10.5855	0.169247	0.169102	0.000193341	1	4.70827e-06	3.26943e-08
2	0	0	0	0	11.0455	0.146247	0.146052	0.000171754	1	4.7914e-06	2.50849e-08
2	0	0	0	0	11.5055	0.123246	0.123106	0.000140693	1	4.86296e-06	1.73203e-08
2	0	0	0	0	11.9655	0.100245	0.100064	7.65769e-05	1	4.91446e-06	7.66256e-09
2	0	0	0	0	12.4255	0.0772443	0.0770748	-8.13336e-05	1	4.91848e-06	-6.26877e-09
2	0	0	0	0	12.8855	0.0542436	0.0541549	-0.000420549	1	4.80863e-06	-2.27748e-08
2	0	0	0	0	13.3455	0.0312429	0.0310983	-0.000727464	1	4.53337e-06	-2.26229e-08
2	0	0	0	0	13.8055	0.00824212	0.00813703	-0.000686455	1	4.19597e-06	-5.5857e-09
2	0	0	0	0	14.2655	-0.0147586	-0.0149196	-0.00053764	1	3.91413e-06	8.02138e-09
2	0	0	0	0	14.7255	-0.0377594	-0.0378703	-0.000431728	1	3.69272e-06	1.63497e-08
2	0	0	0	0	15.1855	-0.0607601	-0.0609322	-0.000368792	1	3.5089e-06	2.24713e-08
2	0	0	0	0	15.6455	-0.0837609	-0.0839147	-0.000328518	1	3.34827e-06	2.75675e-08
2	0	0	1	0	16.1057	-0.106762	-0.10686	-0.000300225	1	3.20293e-06	3.20821e-08
2	0	0	1	0	16.5657	-0.129762	-0.129876	-0.000282802	1	3.06834e-06	3.67293e-08
2	0	0	1	0	17.0257	-0.152763	-0.15286	-0.000268312	1	2.94142e-06	4.10141e-08
2	0	0	1	0	17.4857	-0.175764	-0.175972	-0.00025924	1	2.81955e-06	4.56189e-08
2	0	0	1	0	17.9457	-0.198765	-0.198876	-0.000256827	1	2.70026e-06	5.10766e-08
2	1	0	1	1	18.3961	-0.178714	-0.178782	-7.25387e-05	1	2.65335e-06	1.29686e-08
2	1	0	1	1	18.8561	-0.155713	-0.155807	-4.13601e-05	1	2.62934e-06	6.44419e-09
2	1	0	1	1	19.3161	-0.132712	-0.132817	-2.21982e-05	1	2.61616e-06	2.9483e-09
2	1	0	1	1	19.7761	-0.109712	-0.10985	-8.28079e-06	1	2.61051e-06	9.09641e-10
2	1	0	0	1	20.2363	-0.086711	-0.086848	3.95504e-06	2	2.61068e-06	-3.43487e-10
2	1	0	0	1	20.6963	-0.0637102	-0.063803	1.10242e-05	2	2.61568e-06	-7.03374e-10
2	1	0	0	1	21.1563	-0.0407095	-0.0407909	2.51076e-05	2	2.62512e-06	-1.02416e-09
2	1	0	0	1	21.6163	-0.0177087	-0.0177873	3.98023e-05	2	2.64026e-06	-7.07973e-10
2	1	0	0	1	22.0763	0.00529202	0.00520154	8.48595e-05	2	2.6682e-06	4.414e-10
2	1	0	0	1	22.5363	0.0282928	0.0281585	0.000227067	2	2.73576e-06	6.39387e-09
2	1	0	0	1	22.9963	0.0512935	0.0512014	0.000550006	2	2.90975e-06	2.81611e-08
2	1	0	0	1	23.4563	0.0742942	0.0742485	0.000864598	2	3.24405e-06	6.41951e-08
2	1	0	0	1	23.9163	0.097295	0.0972161	0.000884055	2	3.65747e-06	8.59443e-08
2	1	0	0	1	24.3763	0.120296	0.120182	0.000762122	2	4.03815e-06	9.15931e-08
2	1	0	0	1	24.8363	0.143296	0.143209	0.000657762	2	4.36436e-06	9.41971e-08
2	1	0	0	1	25.2963	0.166297	0.166214	0.000588494	2	4.65103e-06	9.78161e-08
2	1	0	0	1	25.7563	0.189298	0.189192	0.000544958	2	4.91201e-06	1.03102e-07
2	1	0	1	1	26.2165	0.212299	0.212187	0.000515378	2	5.1566e-06	1.09356e-07
2	1	0	1	1	26.6765	0.235299	0.235225	0.000498018	2	5.39091e-06	1.17146e-07
2	1	0	1	1	27.1365	0.2583	0.258239	0.00049384	2	5.62017e-06	1.27529e-07
2	1	0	1	1	27.5965	0.281301	0.281236	0.000497682	2	5.84932e-06	1.39966e-07
2	0	0	1	1	28.0359	0.296751	0.296617	0.000373368	2	6.06464e-06	1.10747e-07
2	0	0	1	1	28.4959	0.273751	0.273623	0.000282155	2	6.21049e-06	7.72041e-08
2	0	0	1	1	28.9559	0.25075	0.250586	0.000244388	2	6.32963e-06	6.12403e-08
2	0	0	1	1	29.4159	0.227749	0.227587	0.00021697	2	6.43415e-06	4.93796e-08
2	0	0	0	1	29.8761	0.204748	0.204628	0.000197467	2	6.52842e-06	4.04073e-08
2	0	0	0	1	30.3361	0.181748	0.18162	0.000180381	2	6.61404e-06	3.27608e-08
2	0	0	0	1	30.7961	0.158747	0.158612	0.000161253	2	6.69148e-06	2.55766e-08
2	0	0	0	1	31.2561	0.135746	0.135602	0.000140588	2	6.75974e-06	1.9064e-08
2	0	0	0	1	31.7161	0.112745	0.112641	9.9049e-05	2	6.81448e-06	1.1157e-08
2	0	0	0	1	32.1761	0.0897447	0.0896616	7.31649e-06	2	6.84114e-06	6.56008e-10
2	0	0	0	1	32.6361	0.066744	0.0666506	-0.000225692	2	6.79692e-06	-1.50425e-08
2	0	0	0	1	33.0961	0.0437432	0.0435961	-0.000606142	2	6.6061e-06	-2.64254e-08
2	0	0	0	1	33.5561	0.0207425	0.0206316	-0.000777446	2	6.2719e-06	-1.604e-08
2	0	0	0	1	34.0161	-0.00225822	-0.00236033	-0.00065753	2	5.93545e-06	1.55199e-09
2	0	0	0	1	34.4761	-0.025259	-0.0253788	-0.000516987	2	5.66626e-06	1.31205e-08
2	0	0	0	1	34.9361	-0.0482597	-0.0483984	-0.000430725	2	5.44885e-06	2.08464e-08
2	0	0	0	1	35.3961	-0.0712605	-0.0713967	-0.000377313	2	5.26304e-06	2.69389e-08
2	0	0	0	1	35.8561	-0.0942612	-0.0944025	-0.000339897	2	5.09763e-06	3.20871e-08
2	0	0	1	1	36.3163	-0.117262	-0.117428	-0.000315129	2	4.94626e-06	3.7005e-08
2	0	0	1	1	36.7763	-0.140263	-0.140377	-0.000296913	2	4.80514e-06	4.16798e-08
2	0	0	1	1	37.2363	-0.163263	-0.163369	-0.000283072	2	4.67127e-06	4.62452e-08
2	0	0	1	1	37.6963	-0.186264	-0.186405	-0.000276872	2	4.54209e-06	5.16104e-08
2	1	0	1	0	38.1467	-0.191214	-0.191323	-0.0001143	2	4.44306e-06	2.18682e-08
2	1	0	1	0	38.6067	-0.168214	-0.168287	-7.03678e-05	2	4.40301e-06	1.1842e-08
2	1	0	1	0	39.0667	-0.145213	-0.145283	-4.79487e-05	2	4.37739e-06	6.96615e-09
2	1	0	1	0	39.5267	-0.122212	-0.122296	-3.05179e-05	2	4.36096e-06	3.73224e-09
2	1	0	1	0	39.9867	-0.0992114	-0.0993819	-1.59646e-05	3	4.35152e-06	1.58659e-09
2	1	0	0	0	40.4469	-0.0762106	-0.0762744	-4.91404e-06	3	4.34761e-06	3.74815e-10
2	1	0	0	0	40.9069	-0.0532099	-0.0533332	3.67594e-06	3	4.3484e-06	-1.9605e-10
2	1	0	0	0	41.3669	-0.0302091	-0.0303317	1.51928e-05	3	4.35412e-06	-4.60825e-10
2	1	0	0	0	41.8269	-0.00720838	-0.00732489	4.17029e-05	3	4.36778e-06	-3.05469e-10
2	1	0	0	0	42.2869	0.0157924	0.0157339	0.000119887	3	4.40291e-06	1.88629e-09
2	1	0	0	0	42.7469	0.0387931	0.0387386	0.000336633	3	4.50218e-06	1.30407e-08
2	1	0	0	0	43.2069	0.0617938	0.061704	0.000694796	3	4.73962e-06	4.28717e-08
2	1	0	0	0	43.6669	0.0847946	0.0846886	0.00089472	3	5.11856e-06	7.57726e-08
2	1	0	0	0	44.1269	0.107795	0.107728	0.000828996	3	5.52238e-06	8.93063e-08
2	1	0	0	0	44.5869	0.130796	0.130655	0.000705802	3	5.87587e-06	9.22163e-08
2	1	0	0	0	45.0469	0.153797	0.153668	0.000613748	3	6.17938e-06	9.43133e-08
2	1	0	0	0	45.5069	0.176798	0.176723	0.000557031	3	6.44869e-06	9.84404e-08
2	1	0	0	0	45.9669	0.199798	0.199673	0.000514952	3	6.69544e-06	1.02822e-07
2	1	0	1	0	46.4271	0.222799	0.22269	0.000488806	3	6.92736e-06	1.08852e-07
2	1	0	1	0	46.8871	0.2458	0.245697	0.000475346	3	7.14963e-06	1.16791e-07
2	1	0	1	0	47.3471	0.2688	0.268693	0.000467215	3	7.36695e-06	1.25538e-07
2	1	0	1	0	47.8071	0.291801	0.291667	0.000474926	3	7.5842e-06	1.3852e-07
2	0	0	1	0	48.2465	0.286251	0.286107	0.000296262	3	7.75252e-06	8.47625e-08
2	0	0	1	0	48.7065	0.26325	0.263124	0.00024747	3	7.87556e-06	6.51155e-08
2	0	0	1	0	49.1665	0.24025	0.240143	0.000220305	3	7.98151e-06	5.29047e-08
2	0	0	1	0	49.6265	0.217249	0.217094	0.000198607	3	8.07642e-06	4.31163e-08
2	0	0	0	0	50.0867	0.194248	0.194051	0.000180476	3	8.16264e-06	3.50216e-08
2	0	0	0	0	50.5467	0.171247	0.171097	0.000162613	3	8.24089e-06	2.78226e-08
2	0	0	0	0	51.0067	0.148247	0.148068	0.000145655	3	8.31091e-06	2.15669e-08
2	0	0	0	0	51.4667	0.125246	0.125147	0.000118373	3	8.37055e-06	1.48141e-08
2	0	0	0	0	51.9267	0.102245	0.102117	6.03101e-05	3	8.41221e-06	6.15869e-09
2	0	0	0	0	52.3867	0.0792444	0.0791102	-8.02173e-05	3	8.41173e-06	-6.34601e-09
2	0	0	0	0	52.8467	0.0562437	0.0561437	-0.000394521	3	8.30882e-06	-2.21499e-08
2	0	0	0	0	53.3067	0.0332429	0.0331316	-0.000734852	3	8.04094e-06	-2.43468e-08
2	0	0	0	0	53.7667	0.0102422	0.0100696	-0.000757927	3	7.68352e-06	-7.63204e-09
2	0	0	0	0	54.2267	-0.0127586	-0.0128884	-0.000606262	3	7.36923e-06	7.81377e-09
2	0	0	0	0	54.6867	-0.0357593	-0.0358836	-0.00048675	3	7.11941e-06	1.74663e-08
2	0	0	0	0	55.1467	-0.05876	-0.0589307	-0.000417412	3	6.9118e-06	2.45984e-08
2	0	0	0	0	55.6067	-0.0817608	-0.0819163	-0.000370676	3	6.73037e-06	3.03645e-08
2	0	0	1	0	56.0669	-0.104762	-0.104794	-0.000339482	3	6.56646e-06	3.55756e-08
2	0	0	1	0	56.5269	-0.127762	-0.127881	-0.000314339	3	6.41517e-06	4.0198e-08
2	0	0	1	0	56.9869	-0.150763	-0.150884	-0.000297728	3	6.27309e-06	4.49223e-08
2	0	0	1	0	57.4469	-0.173764	-0.173829	-0.000289712	3	6.13751e-06	5.03604e-08
2	0	0	1	0	57.9069	-0.196765	-0.19694	-0.000283008	3	6.00571e-06	5.57356e-08
2	1	0	1	1	58.3573	-0.180714	-0.180822	-9.63975e-05	3	5.94114e-06	1.74308e-08
2	1	0	1	1	58.8173	-0.157713	-0.157747	-6.64429e-05	3	5.90561e-06	1.04812e-08
2	1	0	1	1	59.2773	-0.134713	-0.134739	-4.66734e-05	3	5.88143e-06	6.28874e-09
2	1	0	1	1	59.7373	-0.111712	-0.11178	-2.93645e-05	3	5.86534e-06	3.28236e-09
2	1	0	0	1	60.1975	-0.088711	-0.0888252	-1.81655e-05	3	5.8556e-06	1.61356e-09
2	1	0	0	1	60.555	-0.0708354	-0.071049	-1.01673e-05	3	5.85167e-06	7.22376e-10