File: AutoAnalysis Examples/EC/C003A-10ppb-B_C01.mpt
EC-Lab ASCII FILE
Nb header lines : 59

Cyclic Voltammetry

Run on channel : 1 (SN 22398)
User :
CE vs. WE compliance from -10 V to 10 V
Electrode connection : standard
Ewe ctrl range : min = -1.00 V, max = 1.00 V
Safety Limits :
	Ewe min = -2.00 V
	Ewe max = 2.00 V
	|I| = 50.000 mA
	for t > 10 ms
Acquisition started on : 11/21/2018 11:02:24
Technique started on : 11/21/2018 11:02:24
Saved on :
	File : C003A-10ppb-B_C01.mpr
	Directory : \\ECCOMPUTER\Users\Lab User\Google Drive\Electrochemical Data\EC-Lab\Data\FREDsense\Tim\2018.11.21 - EC comparison to High Throughput\
	Host : 172.16.1.30
Device : SP-50 (SN 0301030103010301)
Address : USB
EC-Lab for windows v11.02 (software)
Internet server v11.02 (firmware)
Command interpretor v11.02 (firmware)
Electrode material : Au/Pd
Initial state :
Electrolyte : NaCl (0.2M)
Comments : Fe(CN)63-/Fe(CN)64- 5.10-3 M
Reference electrode : SCE Saturated Calomel Electrode (0.241 V)
Electrode surface area : 0.001 cm²
Characteristic mass : 0.001 g
Equivalent Weight : 0.000 g/eq.
Density : 0.000 g/cm3
Cycle Definition : Charge/Discharge alternance
Ei (V)              -0.100
vs.                 Ref
dE/dt               50.000
dE/dt unit          mV/s
E1 (V)              0.300
vs.                 Ref
Step percent        50
N                   10
E range min (V)     -1.000
E range max (V)     1.000
I Range             Auto
I Range min         Unset
I Range max         Unset
I Range init        Unset
Bandwidth           5
E2 (V)              -0.200
vs.                 Ref
nc cycles           2
Reverse Scan        1
Ef (V)              0.000
vs.                 Eoc

mode	ox/red	error	control changes	counter inc.	time/s	control/V	Ewe/V	<I>/mA	cycle number	(Q-Qo)/C	P/W
2	1	0	1	0	0.000000000000000E+000	-0.0984851	-0.0986215	-8.3228e-05	1	0.0000000E+000	8.20807e-09
2	1	0	1	0	0.4865	-0.0741592	-0.0742694	4.92437e-05	1	1.98916e-08	-3.6573e-09
2	1	0	1	0	0.9465	-0.0511582	-0.0512848	6.04408e-05	1	4.66708e-08	-3.0997e-09
2	1	0	1	0	1.4065	-0.0281573	-0.0282939	7.05199e-05	1	7.80583e-08	-1.99528e-09
2	1	0	1	0	1.8665	-0.00515635	-0.0052489	9.4421e-05	1	1.16667e-07	-4.95606e-10
2	1	0	1	0	2.3265	0.0178446	0.0177187	0.000171293	1	1.75705e-07	3.03509e-09
2	1	0	1	0	2.7865	0.0408455	0.0407266	0.00039634	1	2.99508e-07	1.61416e-08
2	1	0	1	0	3.2465	0.0638464	0.0637514	0.000766816	1	5.67403e-07	4.88856e-08
2	1	0	1	0	3.7065	0.0868473	0.0867243	0.000953909	1	9.77522e-07	8.27271e-08
2	1	0	1	0	4.1665	0.109848	0.109749	0.000881651	1	1.40643e-06	9.67604e-08
2	1	0	1	0	4.6265	0.132849	0.132697	0.00076813	1	1.78627e-06	1.01928e-07
2	1	0	0	0	5.0867	0.15585	0.155718	0.000688585	1	2.12128e-06	1.07225e-07
2	1	0	0	0	5.5467	0.178851	0.178751	0.000636805	1	2.42674e-06	1.13829e-07
2	1	0	0	0	6.0067	0.201852	0.201676	0.000606425	1	2.71405e-06	1.22301e-07
2	1	0	0	0	6.4667	0.224853	0.224679	0.000592534	1	2.99089e-06	1.3313e-07
2	1	0	0	0	6.9267	0.247854	0.247734	0.000584626	1	3.26236e-06	1.44832e-07
2	1	0	0	0	7.3867	0.270855	0.270727	0.000585557	1	3.5324e-06	1.58526e-07
2	1	0	0	0	7.8467	0.293856	0.293752	0.000591746	1	3.80405e-06	1.73826e-07
2	0	0	1	0	8.2953	0.283705	0.283553	0.000370479	1	4.01339e-06	1.0505e-07
2	0	0	1	0	8.7553	0.260704	0.260518	0.000301326	1	4.16519e-06	7.85008e-08
2	0	0	1	0	9.2153	0.237703	0.237532	0.000263502	1	4.29347e-06	6.25903e-08
2	0	0	1	0	9.6753	0.214702	0.214502	0.000238817	1	4.40706e-06	5.12267e-08
2	0	0	1	0	10.1353	0.191702	0.191529	0.000213208	1	4.51074e-06	4.08355e-08
2	0	0	1	0	10.5953	0.168701	0.168508	0.000191877	1	4.60276e-06	3.23327e-08
2	0	0	0	0	11.0555	0.1457	0.145441	0.000169302	1	4.68503e-06	2.46235e-08
2	0	0	0	0	11.5155	0.122699	0.122556	0.000133771	1	4.7546e-06	1.63945e-08
2	0	0	0	0	11.9755	0.0996979	0.0995126	6.67769e-05	1	4.80216e-06	6.64514e-09
2	0	0	0	0	12.4355	0.0766969	0.0765556	-0.000102919	1	4.79852e-06	-7.87902e-09
2	0	0	0	0	12.8955	0.053696	0.0535424	-0.000439205	1	4.67806e-06	-2.35161e-08
2	0	0	0	0	13.3555	0.0306951	0.0305239	-0.00071612	1	4.3998e-06	-2.18588e-08
2	0	0	0	0	13.8155	0.00769417	0.00754468	-0.000667221	1	4.07074e-06	-5.03397e-09
2	0	0	0	0	14.2755	-0.0153068	-0.0155289	-0.00051972	1	3.79764e-06	8.07069e-09
2	0	0	0	0	14.7355	-0.0383077	-0.0385061	-0.000419992	1	3.58238e-06	1.61723e-08
2	0	0	0	0	15.1955	-0.0613086	-0.0614376	-0.000357898	1	3.40339e-06	2.19884e-08
2	0	0	0	0	15.6555	-0.0843096	-0.0844879	-0.000319631	1	3.24699e-06	2.7005e-08
2	0	0	1	0	16.1157	-0.107311	-0.1075	-0.000293163	1	3.10552e-06	3.15151e-08
2	0	0	1	0	16.5757	-0.130311	-0.130477	-0.000271984	1	2.97469e-06	3.54878e-08
2	0	0	1	0	17.0357	-0.153312	-0.153418	-0.000260423	1	2.85148e-06	3.99537e-08
2	0	0	1	0	17.4957	-0.176313	-0.176469	-0.00025177	1	2.7333e-06	4.44294e-08
2	0	0	1	0	17.9557	-0.199314	-0.199461	-0.000248414	1	2.61789e-06	4.95487e-08
2	1	0	0	1	18.4051	-0.178213	-0.178326	-7.74952e-05	1	2.57113e-06	1.38194e-08
2	1	0	0	1	18.8651	-0.155212	-0.15534	-4.93654e-05	1	2.54377e-06	7.66843e-09
2	1	0	0	1	19.3251	-0.132212	-0.132273	-3.11892e-05	1	2.52657e-06	4.12549e-09
2	1	0	0	1	19.7851	-0.109211	-0.109379	-1.93914e-05	1	2.51653e-06	2.12101e-09
2	1	0	1	1	20.2453	-0.0862097	-0.0864068	-6.69457e-06	2	2.51204e-06	5.78456e-10
2	1	0	1	1	20.7053	-0.0632087	-0.063383	2.75742e-06	2	2.51219e-06	-1.74773e-10
2	1	0	1	1	21.1653	-0.0402078	-0.0403422	1.15364e-05	2	2.51661e-06	-4.65404e-10
2	1	0	1	1	21.6253	-0.0172068	-0.0173311	2.67168e-05	2	2.52645e-06	-4.63033e-10
2	1	0	1	1	22.0853	0.00579409	0.00571173	6.78297e-05	2	2.54797e-06	3.87425e-10
2	1	0	1	1	22.5453	0.028795	0.0286454	0.000195434	2	2.60455e-06	5.59829e-09
2	1	0	1	1	23.0053	0.0517959	0.051666	0.000484711	2	2.75558e-06	2.50431e-08
2	1	0	1	1	23.4653	0.0747969	0.0746813	0.000796869	2	3.0575e-06	5.95112e-08
2	1	0	1	1	23.9253	0.0977978	0.0977104	0.000853703	2	3.44884e-06	8.34156e-08
2	1	0	1	1	24.3853	0.120799	0.120658	0.000747279	2	3.81988e-06	9.01651e-08
2	1	0	1	1	24.8453	0.1438	0.143631	0.00064519	2	4.13981e-06	9.26691e-08
2	1	0	0	1	25.3055	0.166801	0.166581	0.000572123	2	4.42001e-06	9.53051e-08
2	1	0	0	1	25.7655	0.189801	0.189641	0.000525634	2	4.67342e-06	9.96818e-08
2	1	0	0	1	26.2255	0.212802	0.212642	0.000497707	2	4.90946e-06	1.05833e-07
2	1	0	0	1	26.6855	0.235803	0.235658	0.00047869	2	5.13455e-06	1.12807e-07
2	1	0	0	1	27.1455	0.258804	0.258689	0.000470586	2	5.3538e-06	1.21735e-07
2	1	0	0	1	27.6055	0.281805	0.281675	0.000472709	2	5.57197e-06	1.3315e-07
2	0	0	0	1	28.0551	0.295706	0.295502	0.00034901	2	5.77842e-06	1.03133e-07
2	0	0	0	1	28.5151	0.272705	0.272551	0.000271151	2	5.91685e-06	7.39025e-08
2	0	0	0	1	28.9751	0.249704	0.249524	0.000234085	2	6.03108e-06	5.84098e-08
2	0	0	0	1	29.4351	0.226703	0.22649	0.000209747	2	6.13157e-06	4.75057e-08
2	0	0	0	1	29.8951	0.203702	0.203525	0.000188688	2	6.22204e-06	3.84027e-08
2	0	0	0	1	30.3551	0.180701	0.18058	0.000170072	2	6.30399e-06	3.07117e-08
2	0	0	0	1	30.8151	0.1577	0.157527	0.000153339	2	6.37762e-06	2.4155e-08
2	0	0	1	1	31.2753	0.134699	0.134534	0.000129189	2	6.44165e-06	1.73803e-08
2	0	0	1	1	31.7353	0.111698	0.111542	8.56614e-05	2	6.49113e-06	9.55483e-09
2	0	0	1	1	32.1953	0.0886974	0.0885509	-1.63656e-05	2	6.51027e-06	-1.44919e-09
2	0	0	1	1	32.6553	0.0656965	0.0655515	-0.0002529	2	6.45476e-06	-1.6578e-08
2	0	0	1	1	33.1153	0.0426956	0.042515	-0.00060855	2	6.25464e-06	-2.58725e-08
2	0	0	1	1	33.5753	0.0196946	0.019576	-0.000743559	2	5.92867e-06	-1.45559e-08
2	0	0	1	1	34.0353	-0.00330628	-0.00343608	-0.000620515	2	5.61083e-06	2.13214e-09
2	0	0	1	1	34.4953	-0.0263072	-0.0265023	-0.000491254	2	5.35652e-06	1.30194e-08
2	0	0	1	1	34.9553	-0.0493081	-0.0494784	-0.00041074	2	5.1498e-06	2.03227e-08
2	0	0	1	1	35.4153	-0.0723091	-0.072482	-0.000360249	2	4.97237e-06	2.61116e-08
2	0	0	1	1	35.8753	-0.09531	-0.0954687	-0.000326741	2	4.81404e-06	3.11935e-08
2	0	0	0	1	36.3355	-0.118311	-0.118491	-0.000299794	2	4.66895e-06	3.55231e-08
2	0	0	0	1	36.7955	-0.141312	-0.141441	-0.000283579	2	4.53356e-06	4.01097e-08
2	0	0	0	1	37.2555	-0.164313	-0.164458	-0.000270264	2	4.40508e-06	4.44472e-08
2	0	0	0	1	37.7155	-0.187314	-0.187472	-0.000264302	2	4.2811e-06	4.95492e-08
2	1	0	1	0	38.1649	-0.190214	-0.190319	-0.000114058	2	4.1883e-06	2.17074e-08
2	1	0	1	0	38.6249	-0.167213	-0.167329	-7.56176e-05	2	4.14702e-06	1.2653e-08
2	1	0	1	0	39.0849	-0.144212	-0.144236	-5.30819e-05	2	4.11888e-06	7.65629e-09
2	1	0	1	0	39.5449	-0.121211	-0.121348	-3.86928e-05	2	4.09937e-06	4.69532e-09
2	1	0	0	0	40.0051	-0.0982101	-0.0983374	-2.46941e-05	3	4.0864e-06	2.42836e-09
2	1	0	0	0	40.4651	-0.0752092	-0.0753306	-1.42494e-05	3	4.07869e-06	1.07342e-09
2	1	0	0	0	40.9251	-0.0522083	-0.0522972	-2.62832e-06	3	4.07549e-06	1.37454e-10
2	1	0	0	0	41.3851	-0.0292073	-0.0293614	6.47038e-06	3	4.07698e-06	-1.8998e-10
2	1	0	0	0	41.8451	-0.0062064	-0.00627192	2.85592e-05	3	4.08593e-06	-1.79121e-10
2	1	0	0	0	42.3051	0.0167945	0.0167031	0.000102675	3	4.11436e-06	1.715e-09
2	1	0	0	0	42.7651	0.0397955	0.0396771	0.000293301	3	4.19975e-06	1.16373e-08
2	1	0	0	0	43.2251	0.0627964	0.0627008	0.000621192	3	4.4095e-06	3.89493e-08
2	1	0	0	0	43.6851	0.0857973	0.0857342	0.000832207	3	4.75551e-06	7.13486e-08
2	1	0	0	0	44.1451	0.108798	0.108668	0.000791243	3	5.13666e-06	8.59827e-08
2	1	0	0	0	44.6051	0.131799	0.131675	0.000679896	3	5.47588e-06	8.95251e-08
2	1	0	1	0	45.0653	0.1548	0.154713	0.000589485	3	5.76794e-06	9.12012e-08
2	1	0	1	0	45.5253	0.177801	0.17767	0.000529149	3	6.02611e-06	9.4014e-08
2	1	0	1	0	45.9853	0.200802	0.200653	0.000489804	3	6.26161e-06	9.82805e-08
2	1	0	1	0	46.4453	0.223803	0.223541	0.000463328	3	6.48201e-06	1.03573e-07
2	1	0	1	0	46.9053	0.246804	0.24663	0.000448059	3	6.6926e-06	1.10505e-07
2	1	0	1	0	47.3653	0.269805	0.269679	0.000438768	3	6.89788e-06	1.18327e-07
2	1	0	1	0	47.8253	0.292806	0.292632	0.000445934	3	7.10249e-06	1.30495e-07
2	0	0	1	0	48.2749	0.284705	0.284525	0.00027804	3	7.26059e-06	7.91094e-08
2	0	0	1	0	48.7349	0.261704	0.261546	0.000235129	3	7.37628e-06	6.1497e-08
2	0	0	1	0	49.1949	0.238703	0.238482	0.0002079	3	7.4764e-06	4.95803e-08
2	0	0	1	0	49.6549	0.215703	0.215523	0.000187337	3	7.56608e-06	4.03754e-08
2	0	0	1	0	50.1149	0.192702	0.192537	0.000168627	3	7.64731e-06	3.24671e-08
2	0	0	1	0	50.5749	0.169701	0.169533	0.000154286	3	7.72069e-06	2.61565e-08
2	0	0	0	0	51.0351	0.1467	0.146573	0.00013373	3	7.78571e-06	1.96012e-08
2	0	0	0	0	51.4951	0.123699	0.123509	0.000104915	3	7.83975e-06	1.29579e-08
2	0	0	0	0	51.9551	0.100698	0.100583	4.30206e-05	3	7.87431e-06	4.32716e-09
2	0	0	0	0	52.4151	0.077697	0.0775521	-0.000109764	3	7.86328e-06	-8.51241e-09
2	0	0	0	0	52.8751	0.0546961	0.0545559	-0.000418837	3	7.74624e-06	-2.285e-08
2	0	0	0	0	53.3351	0.0316951	0.0315523	-0.000716081	3	7.47512e-06	-2.2594e-08
2	0	0	0	0	53.7951	0.00869421	0.00853272	-0.000698938	3	7.13752e-06	-5.96384e-09
2	0	0	0	0	54.2551	-0.0143067	-0.0145006	-0.000559958	3	6.84688e-06	8.11973e-09
2	0	0	0	0	54.7151	-0.0373077	-0.0374226	-0.000456163	3	6.61449e-06	1.70708e-08
2	0	0	0	0	55.1751	-0.0603086	-0.0604856	-0.000391645	3	6.41988e-06	2.36889e-08
2	0	0	0	0	55.6351	-0.0833095	-0.0834935	-0.000350725	3	6.24896e-06	2.92833e-08
2	0	0	1	0	56.0953	-0.10631	-0.106451	-0.000320269	3	6.0941e-06	3.40928e-08
2	0	0	1	0	56.5553	-0.129311	-0.129456	-0.000299393	3	5.95092e-06	3.87584e-08
2	0	0	1	0	57.0153	-0.152312	-0.152449	-0.000283445	3	5.81629e-06	4.3211e-08
2	0	0	1	0	57.4753	-0.175313	-0.17543	-0.000272754	3	5.68767e-06	4.78492e-08
2	0	0	1	0	57.9353	-0.198314	-0.198449	-0.00026863	3	5.56256e-06	5.33094e-08
2	1	0	0	1	58.3847	-0.179213	-0.179302	-9.71111e-05	3	5.5046e-06	1.74122e-08
2	1	0	0	1	58.8447	-0.156213	-0.156343	-6.69834e-05	3	5.46857e-06	1.04724e-08
2	1	0	0	1	59.3047	-0.133212	-0.133276	-5.06725e-05	3	5.44296e-06	6.75343e-09
2	1	0	0	1	59.7647	-0.110211	-0.110314	-3.71366e-05	3	5.42487e-06	4.09668e-09
2	1	0	1	1	60.2249	-0.0872097	-0.0873418	-2.36891e-05	3	5.41268e-06	2.06904e-09
2	1	0	0	1	60.6558	-0.0656338	-0.0658764	-2.07551e-05	3	5.40571e-06	1.36727e-09