File: AutoAnalysis Examples/EC/C003A-0ppb-B_C01.mpt
EC-Lab ASCII FILE
Nb header lines : 59

Cyclic Voltammetry

Run on channel : 1 (SN 22398)
User :
CE vs. WE compliance from -10 V to 10 V
Electrode connection : standard
Ewe ctrl range : min = -1.00 V, max = 1.00 V
Safety Limits :
	Ewe min = -2.00 V
	Ewe max = 2.00 V
	|I| = 50.000 mA
	for t > 10 ms
Acquisition started on : 11/21/2018 10:55:54
Technique started on : 11/21/2018 10:55:54
Saved on :
	File : C003A-0ppb-B_C01.mpr
	Directory : \\ECCOMPUTER\Users\Lab User\Google Drive\Electrochemical Data\EC-Lab\Data\FREDsense\Tim\2018.11.21 - EC comparison to High Throughput\
	Host : 172.16.1.30
Device : SP-50 (SN 0301030103010301)
Address : USB
EC-Lab for windows v11.02 (software)
Internet server v11.02 (firmware)
Command interpretor v11.02 (firmware)
Electrode material : Au/Pd
Initial state :
Electrolyte : NaCl (0.2M)
Comments : Fe(CN)63-/Fe(CN)64- 5.10-3 M
Reference electrode : SCE Saturated Calomel Electrode (0.241 V)
Electrode surface area : 0.001 cm²
Characteristic mass : 0.001 g
Equivalent Weight : 0.000 g/eq.
Density : 0.000 g/cm3
Cycle Definition : Charge/Discharge alternance
Ei (V)              -0.100
vs.                 Ref
dE/dt               50.000
dE/dt unit          mV/s
E1 (V)              0.300
vs.                 Ref
Step percent        50
N                   10
E range min (V)     -1.000
E range max (V)     1.000
I Range             Auto
I Range min         Unset
I Range max         Unset
I Range init        Unset
Bandwidth           5
E2 (V)              -0.200
vs.                 Ref
nc cycles           2
Reverse Scan        1
Ef (V)              0.000
vs.                 Eoc

mode	ox/red	error	control changes	counter inc.	time/s	control/V	Ewe/V	<I>/mA	cycle number	(Q-Qo)/C	P/W
2	1	0	1	0	0.000000000000000E+000	-0.0984851	-0.098736	-8.19563e-05	1	0.0000000E+000	8.09203e-09
2	1	0	1	0	0.4865	-0.0741592	-0.0743298	5.04183e-05	1	1.80308e-08	-3.74758e-09
2	1	0	1	0	0.9465	-0.0511582	-0.0512626	5.88423e-05	1	4.44326e-08	-3.0164e-09
2	1	0	1	0	1.4065	-0.0281573	-0.028313	6.89725e-05	1	7.50413e-08	-1.95282e-09
2	1	0	1	0	1.8665	-0.00515635	-0.00530508	8.8039e-05	1	1.11621e-07	-4.67054e-10
2	1	0	1	0	2.3265	0.0178446	0.0177484	0.000143094	1	1.63694e-07	2.53969e-09
2	1	0	1	0	2.7865	0.0408455	0.0407064	0.000299111	1	2.62171e-07	1.21757e-08
2	1	0	1	0	3.2465	0.0638464	0.0637472	0.000544463	1	4.58053e-07	3.4708e-08
2	1	0	1	0	3.7065	0.0868473	0.0867052	0.000645173	1	7.41121e-07	5.59398e-08
2	1	0	1	0	4.1665	0.109848	0.109709	0.000595903	1	1.03034e-06	6.53758e-08
2	1	0	1	0	4.6265	0.132849	0.132776	0.000527386	1	1.28885e-06	7.00242e-08
2	1	0	0	0	5.0867	0.15585	0.155742	0.000482816	1	1.52175e-06	7.51945e-08
2	1	0	0	0	5.5467	0.178851	0.178711	0.000458927	1	1.73891e-06	8.20155e-08
2	1	0	0	0	6.0067	0.201852	0.201745	0.00044534	1	1.94768e-06	8.9845e-08
2	1	0	0	0	6.4667	0.224853	0.224708	0.000444111	1	2.1531e-06	9.97953e-08
2	1	0	0	0	6.9267	0.247854	0.24772	0.000446995	1	2.35871e-06	1.1073e-07
2	1	0	0	0	7.3867	0.270855	0.27072	0.000456845	1	2.56733e-06	1.23677e-07
2	1	0	0	0	7.8467	0.293856	0.293715	0.000469098	1	2.78128e-06	1.37781e-07
2	0	0	1	0	8.2953	0.283705	0.283542	0.000254474	1	2.9377e-06	7.2154e-08
2	0	0	1	0	8.7553	0.260704	0.260525	0.000191308	1	3.03782e-06	4.98405e-08
2	0	0	1	0	9.2153	0.237703	0.237474	0.000157432	1	3.11676e-06	3.7386e-08
2	0	0	1	0	9.6753	0.214702	0.21455	0.000136558	1	3.18316e-06	2.92986e-08
2	0	0	1	0	10.1353	0.191702	0.191526	0.000118838	1	3.24052e-06	2.27606e-08
2	0	0	1	0	10.5953	0.168701	0.168517	0.000102765	1	3.29036e-06	1.73177e-08
2	0	0	0	0	11.0555	0.1457	0.145498	8.6829e-05	1	3.33294e-06	1.26334e-08
2	0	0	0	0	11.5155	0.122699	0.122516	6.32759e-05	1	3.36695e-06	7.75232e-09
2	0	0	0	0	11.9755	0.0996979	0.0995953	2.08859e-05	1	3.38682e-06	2.08014e-09
2	0	0	0	0	12.4355	0.0766969	0.0765895	-8.14997e-05	1	3.37503e-06	-6.24202e-09
2	0	0	0	0	12.8955	0.053696	0.0535329	-0.000296062	1	3.2905e-06	-1.58491e-08
2	0	0	0	0	13.3555	0.0306951	0.0305112	-0.000484312	1	3.10336e-06	-1.4777e-08
2	0	0	0	0	13.8155	0.00769417	0.00756695	-0.000460575	1	2.87844e-06	-3.48515e-09
2	0	0	0	0	14.2755	-0.0153068	-0.0154738	-0.000368687	1	2.68758e-06	5.705e-09
2	0	0	0	0	14.7355	-0.0383077	-0.0384668	-0.000300602	1	2.53389e-06	1.15632e-08
2	0	0	0	0	15.1955	-0.0613086	-0.0614641	-0.000263938	1	2.40335e-06	1.62227e-08
2	0	0	0	0	15.6555	-0.0843096	-0.0845123	-0.000239467	1	2.28718e-06	2.02379e-08
2	0	0	1	0	16.1157	-0.107311	-0.107448	-0.000222778	1	2.17978e-06	2.39371e-08
2	0	0	1	0	16.5757	-0.130311	-0.130475	-0.000211245	1	2.08021e-06	2.75622e-08
2	0	0	1	0	17.0357	-0.153312	-0.153441	-0.000205352	1	1.98298e-06	3.15094e-08
2	0	0	1	0	17.4957	-0.176313	-0.176507	-0.000201632	1	1.88844e-06	3.55895e-08
2	0	0	1	0	17.9557	-0.199314	-0.199433	-0.00020408	1	1.79433e-06	4.07004e-08
2	1	0	0	1	18.4051	-0.178213	-0.178338	-4.0461e-05	1	1.76528e-06	7.21572e-09
2	1	0	0	1	18.8651	-0.155212	-0.155325	-1.49436e-05	1	1.75464e-06	2.32113e-09
2	1	0	0	1	19.3251	-0.132212	-0.13234	-6.55258e-07	1	1.75295e-06	8.67167e-11
2	1	0	0	1	19.7851	-0.109211	-0.109365	1.23207e-05	1	1.75719e-06	-1.34745e-09
2	1	0	1	1	20.2453	-0.0862097	-0.0863707	1.76305e-05	2	1.76576e-06	-1.52276e-09
2	1	0	1	1	20.7053	-0.0632087	-0.0633893	2.69835e-05	2	1.77796e-06	-1.71047e-09
2	1	0	1	1	21.1653	-0.0402078	-0.0403454	3.48352e-05	2	1.79329e-06	-1.40544e-09
2	1	0	1	1	21.6253	-0.0172068	-0.0172845	4.4213e-05	2	1.81246e-06	-7.64199e-10
2	1	0	1	1	22.0853	0.00579409	0.00570219	7.65945e-05	2	1.83999e-06	4.36757e-10
2	1	0	1	1	22.5453	0.028795	0.0286899	0.000162092	2	1.89219e-06	4.6504e-09
2	1	0	1	1	23.0053	0.0517959	0.0516946	0.000358497	2	2.00918e-06	1.85324e-08
2	1	0	1	1	23.4653	0.0747969	0.0746877	0.000548945	2	2.22337e-06	4.09994e-08
2	1	0	1	1	23.9253	0.0977978	0.0976468	0.000570935	2	2.48875e-06	5.57499e-08
2	1	0	1	1	24.3853	0.120799	0.120646	0.000504619	2	2.73785e-06	6.08803e-08
2	1	0	1	1	24.8453	0.1438	0.143639	0.000439361	2	2.95486e-06	6.31095e-08
2	1	0	0	1	25.3055	0.166801	0.16665	0.000394028	2	3.14866e-06	6.56649e-08
2	1	0	0	1	25.7655	0.189801	0.189658	0.000369823	2	3.32571e-06	7.014e-08
2	1	0	0	1	26.2255	0.212802	0.212666	0.000353843	2	3.49312e-06	7.52503e-08
2	1	0	0	1	26.6855	0.235803	0.235699	0.00034877	2	3.65549e-06	8.22048e-08
2	1	0	0	1	27.1455	0.258804	0.258615	0.000348439	2	3.81664e-06	9.01116e-08
2	1	0	0	1	27.6055	0.281805	0.281637	0.000358951	2	3.98049e-06	1.01094e-07
2	0	0	0	1	28.0551	0.295706	0.295514	0.000243318	2	4.137e-06	7.19037e-08
2	0	0	0	1	28.5151	0.272705	0.272521	0.00016841	2	4.22802e-06	4.58952e-08
2	0	0	0	1	28.9751	0.249704	0.249489	0.000137012	2	4.2973e-06	3.41831e-08
2	0	0	0	1	29.4351	0.226703	0.226491	0.000118718	2	4.35501e-06	2.68885e-08
2	0	0	0	1	29.8951	0.203702	0.20345	0.000102011	2	4.40473e-06	2.07542e-08
2	0	0	0	1	30.3551	0.180701	0.180529	8.80584e-05	2	4.44797e-06	1.58971e-08
2	0	0	0	1	30.8151	0.1577	0.15756	7.53616e-05	2	4.48516e-06	1.18739e-08
2	0	0	1	1	31.2753	0.134699	0.134539	6.17144e-05	2	4.51625e-06	8.303e-09
2	0	0	1	1	31.7353	0.111698	0.111527	3.18447e-05	2	4.53692e-06	3.55154e-09
2	0	0	1	1	32.1953	0.0886974	0.0885763	-2.9603e-05	2	4.53891e-06	-2.62212e-09
2	0	0	1	1	32.6553	0.0656965	0.065595	-0.000175808	2	4.4951e-06	-1.15321e-08
2	0	0	1	1	33.1153	0.0426956	0.0425108	-0.000407151	2	4.36029e-06	-1.73083e-08
2	0	0	1	1	33.5753	0.0196946	0.0195358	-0.00050845	2	4.14025e-06	-9.93295e-09
2	0	0	1	1	34.0353	-0.00330628	-0.00340534	-0.00043273	2	3.92028e-06	1.47359e-09
2	0	0	1	1	34.4953	-0.0263072	-0.026479	-0.000349819	2	3.74037e-06	9.26284e-09
2	0	0	1	1	34.9553	-0.0493081	-0.0494582	-0.000297512	2	3.59151e-06	1.47144e-08
2	0	0	1	1	35.4153	-0.0723091	-0.0724778	-0.000267667	2	3.46094e-06	1.93999e-08
2	0	0	1	1	35.8753	-0.09531	-0.0955206	-0.000245944	2	3.34232e-06	2.34927e-08
2	0	0	0	1	36.3355	-0.118311	-0.118472	-0.000230177	2	3.23194e-06	2.72696e-08
2	0	0	0	1	36.7955	-0.141312	-0.141479	-0.000220428	2	3.12743e-06	3.1186e-08
2	0	0	0	1	37.2555	-0.164313	-0.164436	-0.000213702	2	3.02664e-06	3.51404e-08
2	0	0	0	1	37.7155	-0.187314	-0.187496	-0.00021207	2	2.92758e-06	3.97623e-08
2	1	0	1	0	38.1649	-0.190214	-0.190278	-6.8771e-05	2	2.85687e-06	1.30856e-08
2	1	0	1	0	38.6249	-0.167213	-0.167345	-3.30987e-05	2	2.83587e-06	5.5389e-09
2	1	0	1	0	39.0849	-0.144212	-0.144353	-1.40534e-05	2	2.82627e-06	2.02865e-09
2	1	0	1	0	39.5449	-0.121211	-0.121309	-2.91801e-06	2	2.82382e-06	3.53982e-10
2	1	0	0	0	40.0051	-0.0982101	-0.09833	6.96851e-06	3	2.82659e-06	-6.85213e-10
2	1	0	0	0	40.4651	-0.0752092	-0.0753242	1.47654e-05	3	2.83351e-06	-1.11219e-09
2	1	0	0	0	40.9251	-0.0522083	-0.0523502	2.48215e-05	3	2.84352e-06	-1.29941e-09
2	1	0	0	0	41.3851	-0.0292073	-0.0293392	3.1509e-05	3	2.85704e-06	-9.24449e-10
2	1	0	0	0	41.8451	-0.0062064	-0.00633977	4.73006e-05	3	2.87576e-06	-2.99875e-10
2	1	0	0	0	42.3051	0.0167945	0.016736	9.80456e-05	3	2.90835e-06	1.64089e-09
2	1	0	0	0	42.7651	0.0397955	0.0396866	0.000228203	3	2.98034e-06	9.05658e-09
2	1	0	0	0	43.2251	0.0627964	0.0626499	0.000443311	3	3.13548e-06	2.77734e-08
2	1	0	0	0	43.6851	0.0857973	0.085661	0.0005617	3	3.37479e-06	4.81158e-08
2	1	0	0	0	44.1451	0.108798	0.108696	0.000527896	3	3.63094e-06	5.73805e-08
2	1	0	0	0	44.6051	0.131799	0.13165	0.000460015	3	3.85915e-06	6.05612e-08
2	1	0	1	0	45.0653	0.1548	0.15466	0.00040383	3	4.0582e-06	6.24564e-08
2	1	0	1	0	45.5253	0.177801	0.177688	0.00036728	3	4.23653e-06	6.52613e-08
2	1	0	1	0	45.9853	0.200802	0.200559	0.000347371	3	4.40158e-06	6.96685e-08
2	1	0	1	0	46.4453	0.223803	0.223617	0.000331249	3	4.55784e-06	7.40729e-08
2	1	0	1	0	46.9053	0.246804	0.24665	0.000323482	3	4.70959e-06	7.9787e-08
2	1	0	1	0	47.3653	0.269805	0.269686	0.000323109	3	4.85991e-06	8.7138e-08
2	1	0	1	0	47.8253	0.292806	0.292702	0.000336652	3	5.01283e-06	9.85388e-08
2	0	0	1	0	48.2749	0.284705	0.284514	0.000178265	3	5.12431e-06	5.07188e-08
2	0	0	1	0	48.7349	0.261704	0.261534	0.000140598	3	5.19549e-06	3.67711e-08
2	0	0	1	0	49.1949	0.238703	0.23851	0.000117384	3	5.25334e-06	2.79973e-08
2	0	0	1	0	49.6549	0.215703	0.215507	9.93828e-05	3	5.30236e-06	2.14177e-08
2	0	0	1	0	50.1149	0.192702	0.192594	8.79277e-05	3	5.34518e-06	1.69343e-08
2	0	0	1	0	50.5749	0.169701	0.16951	7.72569e-05	3	5.38233e-06	1.30959e-08
2	0	0	0	0	51.0351	0.1467	0.146472	6.32671e-05	3	5.41368e-06	9.26685e-09
2	0	0	0	0	51.4951	0.123699	0.123493	4.43207e-05	3	5.43766e-06	5.47328e-09
2	0	0	0	0	51.9551	0.100698	0.100597	5.49357e-06	3	5.44917e-06	5.52637e-10
2	0	0	0	0	52.4151	0.077697	0.0775966	-8.7788e-05	3	5.43265e-06	-6.81206e-09
2	0	0	0	0	52.8751	0.0546961	0.0545898	-0.000282042	3	5.3508e-06	-1.53966e-08
2	0	0	0	0	53.3351	0.0316951	0.0315629	-0.00048241	3	5.16958e-06	-1.52262e-08
2	0	0	0	0	53.7951	0.00869421	0.00856982	-0.000484347	3	4.93898e-06	-4.15077e-09
2	0	0	0	0	54.2551	-0.0143067	-0.0144529	-0.000395999	3	4.73522e-06	5.72334e-09
2	0	0	0	0	54.7151	-0.0373077	-0.0374428	-0.000329551	3	4.56897e-06	1.23393e-08
2	0	0	0	0	55.1751	-0.0603086	-0.0604252	-0.000287184	3	4.42707e-06	1.73532e-08
2	0	0	0	0	55.6351	-0.0833095	-0.0834851	-0.000261414	3	4.30047e-06	2.18242e-08
2	0	0	1	0	56.0953	-0.10631	-0.106448	-0.000242337	3	4.18383e-06	2.57964e-08
2	0	0	1	0	56.5553	-0.129311	-0.129493	-0.000229502	3	4.07389e-06	2.97191e-08
2	0	0	1	0	57.0153	-0.152312	-0.152444	-0.000221215	3	3.96922e-06	3.37228e-08
2	0	0	1	0	57.4753	-0.175313	-0.175473	-0.000216525	3	3.86777e-06	3.79943e-08
2	0	0	1	0	57.9353	-0.198314	-0.198488	-0.00021609	3	3.76738e-06	4.28914e-08
2	1	0	0	1	58.3847	-0.179213	-0.179342	-5.03864e-05	3	3.73096e-06	9.03637e-09
2	1	0	0	1	58.8447	-0.156213	-0.156334	-2.48319e-05	3	3.71504e-06	3.88206e-09
2	1	0	0	1	59.3047	-0.133212	-0.133327	-1.07537e-05	3	3.70784e-06	1.43376e-09
2	1	0	0	1	59.7647	-0.110211	-0.110352	-1.41481e-06	3	3.70671e-06	1.56127e-10
2	1	0	1	1	60.2249	-0.0872097	-0.0873492	1.00456e-05	3	3.71023e-06	-8.77472e-10
2	1	0	0	1	60.6718	-0.0648338	-0.065094	2.69376e-05	3	3.7172e-06	-1.75348e-09