File: AutoAnalysis Examples/EC/C003A-0ppb-A_C01.mpt
EC-Lab ASCII FILE
Nb header lines : 59

Cyclic Voltammetry

Run on channel : 1 (SN 22398)
User :
CE vs. WE compliance from -10 V to 10 V
Electrode connection : standard
Ewe ctrl range : min = -1.00 V, max = 1.00 V
Safety Limits :
	Ewe min = -2.00 V
	Ewe max = 2.00 V
	|I| = 50.000 mA
	for t > 10 ms
Acquisition started on : 11/21/2018 09:56:40
Technique started on : 11/21/2018 09:56:40
Saved on :
	File : C003A-0ppb-A_C01.mpr
	Directory : \\ECCOMPUTER\Users\Lab User\Google Drive\Electrochemical Data\EC-Lab\Data\FREDsense\Tim\2018.11.21 - EC comparison to High Throughput\
	Host : 172.16.1.30
Device : SP-50 (SN 0301030103010301)
Address : USB
EC-Lab for windows v11.02 (software)
Internet server v11.02 (firmware)
Command interpretor v11.02 (firmware)
Electrode material : Au/Pd
Initial state :
Electrolyte : NaCl (0.2M)
Comments : Fe(CN)63-/Fe(CN)64- 5.10-3 M
Reference electrode : SCE Saturated Calomel Electrode (0.241 V)
Electrode surface area : 0.001 cm²
Characteristic mass : 0.001 g
Equivalent Weight : 0.000 g/eq.
Density : 0.000 g/cm3
Cycle Definition : Charge/Discharge alternance
Ei (V)              -0.100
vs.                 Ref
dE/dt               50.000
dE/dt unit          mV/s
E1 (V)              0.300
vs.                 Ref
Step percent        50
N                   10
E range min (V)     -1.000
E range max (V)     1.000
I Range             Auto
I Range min         Unset
I Range max         Unset
I Range init        Unset
Bandwidth           5
E2 (V)              -0.200
vs.                 Ref
nc cycles           2
Reverse Scan        1
Ef (V)              0.000
vs.                 Eoc

mode	ox/red	error	control changes	counter inc.	time/s	control/V	Ewe/V	<I>/mA	cycle number	(Q-Qo)/C	P/W
2	1	0	0	0	0.000000000000000E+000	-0.0985196	-0.0988537	-9.21303e-05	1	0.0000000E+000	9.10742e-09
2	1	0	1	0	0.4867	-0.074194	-0.0744084	4.21763e-05	1	1.62726e-08	-3.13827e-09
2	1	0	1	0	0.9467	-0.0511934	-0.0512987	5.03247e-05	1	3.90895e-08	-2.58159e-09
2	1	0	1	0	1.4067	-0.0281929	-0.0284011	5.95841e-05	1	6.54284e-08	-1.69225e-09
2	1	0	1	0	1.8667	-0.00519227	-0.0053709	7.91169e-05	1	9.79077e-08	-4.24929e-10
2	1	0	1	0	2.3267	0.0178083	0.0176751	0.000143004	1	1.47875e-07	2.52762e-09
2	1	0	1	0	2.7867	0.0408089	0.0406608	0.000296509	1	2.47151e-07	1.20563e-08
2	1	0	1	0	3.2467	0.0638095	0.0637026	0.000504663	1	4.34286e-07	3.21483e-08
2	1	0	1	0	3.7067	0.08681	0.0866956	0.000598743	1	6.96478e-07	5.19084e-08
2	1	0	1	0	4.1667	0.109811	0.109677	0.000562369	1	9.67822e-07	6.1679e-08
2	1	0	1	0	4.6267	0.132811	0.132657	0.000505018	1	1.21404e-06	6.69943e-08
2	1	0	1	0	5.0867	0.155812	0.155705	0.000461293	1	1.43652e-06	7.18258e-08
2	1	0	1	0	5.5467	0.178812	0.178694	0.000435049	1	1.64344e-06	7.77408e-08
2	1	0	1	0	6.0067	0.201813	0.201651	0.000421759	1	1.8416e-06	8.50482e-08
2	1	0	1	0	6.4667	0.224814	0.224663	0.000418057	1	2.03591e-06	9.3922e-08
2	1	0	1	0	6.9267	0.247814	0.247652	0.000420362	1	2.2298e-06	1.04103e-07
2	1	0	1	0	7.3867	0.270815	0.270712	0.000427899	1	2.42614e-06	1.15837e-07
2	1	0	0	0	7.8469	0.293815	0.293702	0.000439471	1	2.6272e-06	1.29073e-07
2	0	0	0	0	8.2965	0.283715	0.283523	0.000244607	1	2.77593e-06	6.93516e-08
2	0	0	0	0	8.7565	0.260714	0.260506	0.000186526	1	2.87242e-06	4.85912e-08
2	0	0	0	0	9.2165	0.237714	0.237567	0.000154042	1	2.94931e-06	3.65954e-08
2	0	0	0	0	9.6765	0.214713	0.214512	0.000133623	1	3.01454e-06	2.86636e-08
2	0	0	0	0	10.1365	0.191713	0.191511	0.000117474	1	3.07126e-06	2.24976e-08
2	0	0	0	0	10.5965	0.168712	0.168526	0.000102039	1	3.12083e-06	1.71963e-08
2	0	0	0	0	11.0565	0.145712	0.145561	8.53559e-05	1	3.16339e-06	1.24245e-08
2	0	0	0	0	11.5165	0.122711	0.122556	6.75029e-05	1	3.19783e-06	8.27291e-09
2	0	0	0	0	11.9765	0.0997104	0.0995326	2.9808e-05	1	3.22009e-06	2.96687e-09
2	0	0	0	0	12.4365	0.0767098	0.0765428	-4.21709e-05	1	3.21911e-06	-3.22788e-09
2	0	0	0	0	12.8965	0.0537092	0.0535254	-0.000191497	1	3.16816e-06	-1.02499e-08
2	0	0	0	0	13.3565	0.0307086	0.0305557	-0.000386364	1	3.03272e-06	-1.18056e-08
2	0	0	0	0	13.8165	0.00770806	0.00753293	-0.00045466	1	2.83082e-06	-3.42492e-09
2	0	0	0	0	14.2765	-0.0152925	-0.0155025	-0.00038821	1	2.63416e-06	6.01823e-09
2	0	0	0	0	14.7365	-0.0382931	-0.0384754	-0.000312232	1	2.47298e-06	1.20132e-08
2	0	0	0	0	15.1965	-0.0612937	-0.0614918	-0.000266088	1	2.33937e-06	1.63622e-08
2	0	0	0	0	15.6565	-0.0842943	-0.0844848	-0.000236856	1	2.22313e-06	2.00107e-08
2	0	0	1	0	16.1167	-0.107295	-0.107439	-0.000215914	1	2.11796e-06	2.31975e-08
2	0	0	1	0	16.5767	-0.130295	-0.130443	-0.000203692	1	2.02032e-06	2.65703e-08
2	0	0	1	0	17.0367	-0.153296	-0.15346	-0.000193823	1	1.92777e-06	2.9744e-08
2	0	0	1	0	17.4967	-0.176297	-0.176493	-0.000189541	1	1.8385e-06	3.34527e-08
2	0	0	1	0	17.9567	-0.199297	-0.199487	-0.000189909	1	1.75066e-06	3.78843e-08
2	1	0	0	1	18.3961	-0.178747	-0.178919	-4.33243e-05	1	1.72234e-06	7.75153e-09
2	1	0	0	1	18.8561	-0.155746	-0.155892	-2.21346e-05	1	1.70952e-06	3.4506e-09
2	1	0	0	1	19.3161	-0.132746	-0.132884	-8.12711e-06	1	1.70433e-06	1.07996e-09
2	1	0	0	1	19.7761	-0.109745	-0.109908	2.01553e-06	1	1.70445e-06	-2.21523e-10
2	1	0	1	1	20.2363	-0.0867444	-0.0869306	1.00738e-05	2	1.70859e-06	-8.75724e-10
2	1	0	1	1	20.6963	-0.0637438	-0.0639428	1.5751e-05	2	1.71605e-06	-1.00716e-09
2	1	0	1	1	21.1563	-0.0407432	-0.0408925	2.39418e-05	2	1.72664e-06	-9.7904e-10
2	1	0	1	1	21.6163	-0.0177426	-0.0178666	3.8481e-05	2	1.74173e-06	-6.87525e-10
2	1	0	1	1	22.0763	0.00525799	0.00510313	6.93576e-05	2	1.76671e-06	3.53941e-10
2	1	0	1	1	22.5363	0.0282586	0.0281322	0.000160928	2	1.81821e-06	4.52725e-09
2	1	0	1	1	22.9963	0.0512591	0.0511496	0.000335933	2	1.93168e-06	1.71829e-08
2	1	0	1	1	23.4563	0.0742597	0.074148	0.000503863	2	2.13011e-06	3.73604e-08
2	1	0	1	1	23.9163	0.0972603	0.0971315	0.000534179	2	2.37546e-06	5.18856e-08
2	1	0	1	1	24.3763	0.120261	0.120094	0.000478292	2	2.61089e-06	5.74399e-08
2	1	0	1	1	24.8363	0.143261	0.143093	0.000420153	2	2.81866e-06	6.0121e-08
2	1	0	1	1	25.2963	0.166262	0.166136	0.000381093	2	3.00366e-06	6.33133e-08
2	1	0	1	1	25.7563	0.189263	0.189126	0.000354249	2	3.17326e-06	6.69977e-08
2	1	0	1	1	26.2163	0.212263	0.212119	0.00033756	2	3.33322e-06	7.16029e-08
2	1	0	1	1	26.6763	0.235264	0.235143	0.000329276	2	3.48776e-06	7.74268e-08
2	1	0	1	1	27.1363	0.258264	0.258131	0.000329562	2	3.64059e-06	8.50703e-08
2	1	0	1	1	27.5963	0.281265	0.281146	0.000339519	2	3.79554e-06	9.54543e-08
2	0	0	0	1	28.0469	0.296215	0.296088	0.000239859	2	3.94537e-06	7.10194e-08
2	0	0	1	1	28.5071	0.273215	0.273071	0.000166854	2	4.03432e-06	4.55629e-08
2	0	0	1	1	28.9671	0.250214	0.250043	0.000135269	2	4.10221e-06	3.3823e-08
2	0	0	1	1	29.4271	0.227214	0.227025	0.000117296	2	4.15898e-06	2.66291e-08
2	0	0	1	1	29.8871	0.204213	0.204039	0.000101835	2	4.20812e-06	2.07782e-08
2	0	0	1	1	30.3471	0.181212	0.181051	8.88215e-05	2	4.25101e-06	1.60812e-08
2	0	0	1	1	30.8071	0.158212	0.158054	7.60558e-05	2	4.28807e-06	1.20209e-08
2	0	0	1	1	31.2671	0.135211	0.135033	6.13117e-05	2	4.31868e-06	8.2791e-09
2	0	0	1	1	31.7271	0.112211	0.112002	3.72622e-05	2	4.34062e-06	4.17343e-09
2	0	0	1	1	32.1871	0.0892101	0.0890597	-7.89925e-06	2	4.3474e-06	-7.03505e-10
2	0	0	1	1	32.6471	0.0662095	0.0660168	-0.000110211	2	4.32173e-06	-7.27576e-09
2	0	0	1	1	33.1071	0.0432089	0.0430333	-0.000295442	2	4.2295e-06	-1.27139e-08
2	0	0	1	1	33.5671	0.0202084	0.0199947	-0.000451309	2	4.05123e-06	-9.02378e-09
2	0	0	1	1	34.0271	-0.00279221	-0.00298986	-0.00044348	2	3.83867e-06	1.32594e-09
2	0	0	1	1	34.4871	-0.0257928	-0.0259861	-0.000364566	2	3.65203e-06	9.47365e-09
2	0	0	1	1	34.9471	-0.0487934	-0.048976	-0.000302504	2	3.49846e-06	1.48154e-08
2	0	0	1	1	35.4071	-0.071794	-0.0720167	-0.000264829	2	3.36707e-06	1.90721e-08
2	0	0	1	1	35.8671	-0.0947946	-0.0950257	-0.000241247	2	3.24975e-06	2.29247e-08
2	0	0	0	1	36.3273	-0.117795	-0.118	-0.000224926	2	3.1418e-06	2.65412e-08
2	0	0	0	1	36.7873	-0.140796	-0.140956	-0.000212515	2	3.04049e-06	2.99552e-08
2	0	0	0	1	37.2473	-0.163796	-0.163988	-0.000203708	2	2.94368e-06	3.34056e-08
2	0	0	0	1	37.7073	-0.186797	-0.187011	-0.00020109	2	2.84953e-06	3.76059e-08
2	1	0	1	0	38.1467	-0.191247	-0.191396	-7.27066e-05	2	2.78084e-06	1.39158e-08
2	1	0	1	0	38.6067	-0.168246	-0.168452	-3.9712e-05	2	2.757e-06	6.68957e-09
2	1	0	1	0	39.0667	-0.145246	-0.145409	-2.37156e-05	2	2.74386e-06	3.44846e-09
2	1	0	1	0	39.5267	-0.122245	-0.122382	-1.03687e-05	2	2.73728e-06	1.26894e-09
2	1	0	1	0	39.9867	-0.0992447	-0.0994294	-2.61242e-06	3	2.7356e-06	2.59752e-10
2	1	0	0	0	40.4469	-0.0762441	-0.0764321	6.26901e-06	3	2.73779e-06	-4.79154e-10
2	1	0	0	0	40.9069	-0.0532435	-0.0534168	1.1252e-05	3	2.74328e-06	-6.01047e-10
2	1	0	0	0	41.3669	-0.0302429	-0.0303824	2.14265e-05	3	2.75241e-06	-6.50988e-10
2	1	0	0	0	41.8269	-0.00724232	-0.00741058	4.15545e-05	3	2.76755e-06	-3.07943e-10
2	1	0	0	0	42.2869	0.0157583	0.0155888	9.12591e-05	3	2.79768e-06	1.42262e-09
2	1	0	0	0	42.7469	0.0387588	0.0386009	0.000215829	3	2.86652e-06	8.3312e-09
2	1	0	0	0	43.2069	0.0617594	0.0616258	0.000400522	3	3.00952e-06	2.46824e-08
2	1	0	0	0	43.6669	0.08476	0.0846474	0.000517717	3	3.22761e-06	4.38234e-08
2	1	0	0	0	44.1269	0.107761	0.10765	0.000500888	3	3.46677e-06	5.39206e-08
2	1	0	0	0	44.5869	0.130761	0.130603	0.000439864	3	3.6847e-06	5.74475e-08
2	1	0	0	0	45.0469	0.153762	0.153619	0.000387955	3	3.87588e-06	5.95974e-08
2	1	0	0	0	45.5069	0.176762	0.176612	0.000351767	3	4.04706e-06	6.21264e-08
2	1	0	0	0	45.9669	0.199763	0.19962	0.000328147	3	4.20489e-06	6.55047e-08
2	1	0	0	0	46.4269	0.222763	0.222571	0.000314404	3	4.3541e-06	6.99772e-08
2	1	0	0	0	46.8869	0.245764	0.245655	0.000307192	3	4.4983e-06	7.54633e-08
2	1	0	0	0	47.3469	0.268765	0.268647	0.000309204	3	4.64092e-06	8.30667e-08
2	1	0	0	0	47.8069	0.291765	0.291628	0.000317285	3	4.78574e-06	9.25294e-08
2	0	0	0	0	48.2577	0.285715	0.285554	0.0001757	3	4.89584e-06	5.01718e-08
2	0	0	0	0	48.7177	0.262714	0.26253	0.000136104	3	4.96586e-06	3.57315e-08
2	0	0	0	0	49.1777	0.239714	0.239516	0.000116725	3	5.0227e-06	2.79575e-08
2	0	0	0	0	49.6377	0.216713	0.216505	9.99233e-05	3	5.07139e-06	2.16339e-08
2	0	0	0	0	50.0977	0.193713	0.193558	8.86873e-05	3	5.11379e-06	1.71662e-08
2	0	0	0	0	50.5577	0.170712	0.170573	7.58809e-05	3	5.15064e-06	1.29432e-08
2	0	0	0	0	51.0177	0.147712	0.147534	6.24969e-05	3	5.18174e-06	9.22042e-09
2	0	0	0	0	51.4777	0.124711	0.124506	4.66983e-05	3	5.20591e-06	5.81422e-09
2	0	0	0	0	51.9377	0.10171	0.101523	1.49879e-05	3	5.21938e-06	1.52161e-09
2	0	0	0	0	52.3977	0.0787099	0.0785401	-5.09181e-05	3	5.2118e-06	-3.99911e-09
2	0	0	0	0	52.8577	0.0557093	0.0555788	-0.000191885	3	5.15803e-06	-1.06648e-08
2	0	0	0	0	53.3177	0.0327087	0.0325296	-0.000388445	3	5.02309e-06	-1.26359e-08
2	0	0	0	0	53.7777	0.0097081	0.00951855	-0.000469084	3	4.81813e-06	-4.465e-09
2	0	0	0	0	54.2377	-0.0132925	-0.0135042	-0.000409841	3	4.6123e-06	5.53456e-09
2	0	0	0	0	54.6977	-0.0362931	-0.0364877	-0.000337127	3	4.44015e-06	1.2301e-08
2	0	0	0	0	55.1577	-0.0592937	-0.0594956	-0.000290676	3	4.2958e-06	1.7294e-08
2	0	0	0	0	55.6177	-0.0822943	-0.0825448	-0.000259461	3	4.16911e-06	2.14171e-08
2	0	0	1	0	56.0779	-0.105295	-0.105491	-0.000238575	3	4.05388e-06	2.51675e-08
2	0	0	1	0	56.5379	-0.128295	-0.128465	-0.000224829	3	3.94669e-06	2.88826e-08
2	0	0	1	0	56.9979	-0.151296	-0.15147	-0.000213167	3	3.84522e-06	3.22884e-08
2	0	0	1	0	57.4579	-0.174297	-0.174514	-0.000207887	3	3.74749e-06	3.62792e-08
2	0	0	1	0	57.9179	-0.197297	-0.197501	-0.000206658	3	3.65165e-06	4.0815e-08
2	1	0	0	1	58.3573	-0.180747	-0.180899	-5.86549e-05	3	3.61123e-06	1.06106e-08
2	1	0	0	1	58.8173	-0.157746	-0.157887	-3.61845e-05	3	3.59149e-06	5.71306e-09
2	1	0	0	1	59.2773	-0.134746	-0.134949	-2.099e-05	3	3.58005e-06	2.83258e-09
2	1	0	0	1	59.7373	-0.111745	-0.111914	-1.0593e-05	3	3.57436e-06	1.18551e-09
2	1	0	1	1	60.1975	-0.0887444	-0.0889151	-1.41481e-06	3	3.57314e-06	1.25798e-10
2	1	0	1	1	60.6535	-0.0659438	-0.0661754	9.54568e-06	3	3.5755e-06	-6.31689e-10
2	1	0	0	1	60.6552	-0.0658188	-0.065975	-7.68728e-06	3	3.57551e-06	5.07169e-10