File: AutoAnalysis Examples/EC/C003C-10ppb-A_C01.mpt
EC-Lab ASCII FILE
Nb header lines : 59

Cyclic Voltammetry

Run on channel : 1 (SN 22398)
User :
CE vs. WE compliance from -10 V to 10 V
Electrode connection : standard
Ewe ctrl range : min = -1.00 V, max = 1.00 V
Safety Limits :
	Ewe min = -2.00 V
	Ewe max = 2.00 V
	|I| = 50.000 mA
	for t > 10 ms
Acquisition started on : 11/21/2018 10:30:27
Technique started on : 11/21/2018 10:30:27
Saved on :
	File : C003C-10ppb-A_C01.mpr
	Directory : \\ECCOMPUTER\Users\Lab User\Google Drive\Electrochemical Data\EC-Lab\Data\FREDsense\Tim\2018.11.21 - EC comparison to High Throughput\
	Host : 172.16.1.30
Device : SP-50 (SN 0301030103010301)
Address : USB
EC-Lab for windows v11.02 (software)
Internet server v11.02 (firmware)
Command interpretor v11.02 (firmware)
Electrode material : Au/Pd
Initial state :
Electrolyte : NaCl (0.2M)
Comments : Fe(CN)63-/Fe(CN)64- 5.10-3 M
Reference electrode : SCE Saturated Calomel Electrode (0.241 V)
Electrode surface area : 0.001 cm²
Characteristic mass : 0.001 g
Equivalent Weight : 0.000 g/eq.
Density : 0.000 g/cm3
Cycle Definition : Charge/Discharge alternance
Ei (V)              -0.100
vs.                 Ref
dE/dt               50.000
dE/dt unit          mV/s
E1 (V)              0.300
vs.                 Ref
Step percent        50
N                   10
E range min (V)     -1.000
E range max (V)     1.000
I Range             Auto
I Range min         Unset
I Range max         Unset
I Range init        Unset
Bandwidth           5
E2 (V)              -0.200
vs.                 Ref
nc cycles           2
Reverse Scan        1
Ef (V)              0.000
vs.                 Eoc

mode	ox/red	error	control changes	counter inc.	time/s	control/V	Ewe/V	<I>/mA	cycle number	(Q-Qo)/C	P/W
2	1	0	0	0	0.000000000000000E+000	-0.0985032	-0.0987984	-0.000113114	1	0.0000000E+000	1.11755e-08
2	1	0	1	0	0.4867	-0.0741776	-0.0743879	4.53117e-05	1	1.629e-08	-3.37064e-09
2	1	0	1	0	0.9467	-0.051177	-0.0513143	6.0455e-05	1	4.25747e-08	-3.10221e-09
2	1	0	1	0	1.4067	-0.0281764	-0.028334	7.58261e-05	1	7.4777e-08	-2.14846e-09
2	1	0	1	0	1.8667	-0.00517572	-0.00528689	0.000122005	1	1.19191e-07	-6.45028e-10
2	1	0	1	0	2.3267	0.0178249	0.0176892	0.000288382	1	2.06473e-07	5.10124e-09
2	1	0	1	0	2.7867	0.0408255	0.0406812	0.00080751	1	4.41658e-07	3.28504e-08
2	1	0	1	0	3.2467	0.0638261	0.0636922	0.00169443	1	1.01546e-06	1.07922e-07
2	1	0	1	0	3.7067	0.0868267	0.0866959	0.00215444	1	1.93271e-06	1.86781e-07
2	1	0	1	0	4.1667	0.109827	0.109726	0.00197752	1	2.89845e-06	2.16985e-07
2	1	0	1	0	4.6267	0.132828	0.132741	0.00168518	1	3.74e-06	2.23693e-07
2	1	0	1	0	5.0867	0.155829	0.155691	0.00147339	1	4.46458e-06	2.29393e-07
2	1	0	1	0	5.5467	0.178829	0.178717	0.00133391	1	5.11013e-06	2.38392e-07
2	1	0	1	0	6.0067	0.20183	0.20167	0.0012357	1	5.7014e-06	2.49202e-07
2	1	0	1	0	6.4667	0.22483	0.224707	0.00116921	1	6.25535e-06	2.62731e-07
2	1	0	1	0	6.9267	0.247831	0.247738	0.00112034	1	6.78312e-06	2.77552e-07
2	1	0	0	0	7.3869	0.270832	0.270698	0.00108124	1	7.29021e-06	2.92691e-07
2	1	0	0	0	7.8469	0.293832	0.293733	0.00105673	1	7.78308e-06	3.10395e-07
2	0	0	1	0	8.2863	0.284182	0.284033	0.000817725	1	8.18894e-06	2.32261e-07
2	0	0	0	0	8.7465	0.261181	0.261024	0.000733759	1	8.54291e-06	1.91529e-07
2	0	0	0	0	9.2065	0.238181	0.238025	0.000674339	1	8.86466e-06	1.6051e-07
2	0	0	0	0	9.6665	0.21518	0.21502	0.000627865	1	9.16337e-06	1.35003e-07
2	0	0	0	0	10.1265	0.19218	0.191999	0.000590409	1	9.44246e-06	1.13358e-07
2	0	0	0	0	10.5865	0.169179	0.168991	0.000547136	1	9.703e-06	9.24611e-08
2	0	0	0	0	11.0465	0.146178	0.145999	0.000500558	1	9.94369e-06	7.3081e-08
2	0	0	0	0	11.5065	0.123178	0.122966	0.000427222	1	1.01579e-05	5.25338e-08
2	0	0	0	0	11.9665	0.100177	0.0999835	0.000274943	1	1.03237e-05	2.74898e-08
2	0	0	0	0	12.4265	0.0771765	0.077019	-0.000111398	1	1.03738e-05	-8.57974e-09
2	0	0	0	0	12.8865	0.0541759	0.053973	-0.000899327	1	1.01534e-05	-4.85394e-08
2	0	0	0	0	13.3465	0.0311753	0.0310383	-0.00158808	1	9.55605e-06	-4.92912e-08
2	0	0	0	0	13.8065	0.00817464	0.00798268	-0.00150566	1	8.81887e-06	-1.20192e-08
2	0	0	0	0	14.2665	-0.014826	-0.0150729	-0.00115685	1	8.20692e-06	1.74371e-08
2	0	0	0	0	14.7265	-0.0378266	-0.0380182	-0.000902574	1	7.7372e-06	3.43143e-08
2	0	0	0	0	15.1865	-0.0608272	-0.0610367	-0.000746786	1	7.35977e-06	4.55814e-08
2	0	0	0	0	15.6465	-0.0838279	-0.0840425	-0.000642537	1	7.04107e-06	5.40004e-08
2	0	0	1	0	16.1067	-0.106829	-0.107026	-0.00056849	1	6.76225e-06	6.08432e-08
2	0	0	1	0	16.5667	-0.129829	-0.130028	-0.000517683	1	6.51223e-06	6.7313e-08
2	0	0	1	0	17.0267	-0.15283	-0.153043	-0.000475982	1	6.28379e-06	7.28456e-08
2	0	0	1	0	17.4867	-0.17583	-0.17604	-0.000442765	1	6.07188e-06	7.79444e-08
2	0	0	1	0	17.9467	-0.198831	-0.199068	-0.000422432	1	5.87225e-06	8.40927e-08
2	1	0	0	1	18.3961	-0.17873	-0.178909	-0.000238183	1	5.7484e-06	4.2613e-08
2	1	0	0	1	18.8561	-0.15573	-0.155901	-0.000195929	1	5.65027e-06	3.05454e-08
2	1	0	0	1	19.3161	-0.132729	-0.132899	-0.000168159	1	5.56815e-06	2.23482e-08
2	1	0	0	1	19.7761	-0.109729	-0.109918	-0.00014194	1	5.49833e-06	1.56018e-08
2	1	0	1	1	20.2363	-0.086728	-0.0868911	-0.000122816	2	5.43847e-06	1.06716e-08
2	1	0	1	1	20.6963	-0.0637273	-0.063915	-0.000106183	2	5.38732e-06	6.7867e-09
2	1	0	1	1	21.1563	-0.0407267	-0.0408647	-8.19236e-05	2	5.34495e-06	3.34778e-09
2	1	0	1	1	21.6163	-0.0177261	-0.0178822	-4.95685e-05	2	5.31454e-06	8.86396e-10
2	1	0	1	1	22.0763	0.00527456	0.00508643	4.43755e-05	2	5.31067e-06	2.25713e-10
2	1	0	1	1	22.5363	0.0282752	0.0280869	0.000339646	2	5.38829e-06	9.5396e-09
2	1	0	1	1	22.9963	0.0512758	0.0511467	0.00103318	2	5.68973e-06	5.28439e-08
2	1	0	1	1	23.4563	0.0742764	0.0741525	0.00180582	2	6.35721e-06	1.33906e-07
2	1	0	1	1	23.9163	0.097277	0.0971603	0.00195502	2	7.24999e-06	1.8995e-07
2	1	0	1	1	24.3763	0.120278	0.120121	0.00169334	2	8.09585e-06	2.03405e-07
2	1	0	1	1	24.8363	0.143278	0.143143	0.00143545	2	8.81408e-06	2.05475e-07
2	1	0	1	1	25.2963	0.166279	0.166165	0.00125899	2	9.43274e-06	2.09199e-07
2	1	0	1	1	25.7563	0.189279	0.189128	0.00113967	2	9.98429e-06	2.15543e-07
2	1	0	1	1	26.2163	0.21228	0.212167	0.00105614	2	1.04895e-05	2.24079e-07
2	1	0	1	1	26.6763	0.235281	0.235179	0.0009936	2	1.0962e-05	2.33674e-07
2	1	0	1	1	27.1363	0.258281	0.258142	0.000949473	2	1.141e-05	2.45099e-07
2	1	0	0	1	27.5965	0.281282	0.281172	0.000920301	2	1.1841e-05	2.58763e-07
2	0	0	0	1	28.0369	0.296682	0.296551	0.000774621	2	1.22362e-05	2.29714e-07
2	0	0	0	1	28.4969	0.273682	0.273565	0.000668671	2	1.25628e-05	1.82925e-07
2	0	0	1	1	28.9571	0.250681	0.250472	0.000611392	2	1.28553e-05	1.53137e-07
2	0	0	1	1	29.4171	0.227681	0.227573	0.000570103	2	1.31254e-05	1.2974e-07
2	0	0	1	1	29.8771	0.20468	0.204521	0.000530014	2	1.33777e-05	1.08399e-07
2	0	0	1	1	30.3371	0.181679	0.181528	0.000496774	2	1.36132e-05	9.01785e-08
2	0	0	1	1	30.7971	0.158679	0.15852	0.00045741	2	1.38318e-05	7.25088e-08
2	0	0	1	1	31.2571	0.135678	0.135538	0.000405497	2	1.40304e-05	5.49603e-08
2	0	0	1	1	31.7171	0.112677	0.112543	0.000317091	2	1.41984e-05	3.56863e-08
2	0	0	1	1	32.1771	0.0896768	0.0895614	9.71271e-05	2	1.43004e-05	8.69884e-09
2	0	0	1	1	32.6371	0.0666762	0.0665302	-0.0004454	2	1.42355e-05	-2.96325e-08
2	0	0	1	1	33.0971	0.0436756	0.0434661	-0.00129612	2	1.38351e-05	-5.63372e-08
2	0	0	1	1	33.5571	0.020675	0.0204953	-0.00167675	2	1.31176e-05	-3.43655e-08
2	0	0	1	1	34.0171	-0.00232565	-0.00256661	-0.00140909	2	1.2395e-05	3.6166e-09
2	0	0	1	1	34.4771	-0.0253263	-0.0255438	-0.00109034	2	1.18231e-05	2.78513e-08
2	0	0	1	1	34.9371	-0.0483269	-0.0485792	-0.000883549	2	1.13721e-05	4.29221e-08
2	0	0	1	1	35.3971	-0.0713275	-0.0715553	-0.000751972	2	1.09973e-05	5.38076e-08
2	0	0	1	1	35.8571	-0.0943282	-0.0944911	-0.000661877	2	1.0673e-05	6.25415e-08
2	0	0	0	1	36.3173	-0.117329	-0.117583	-0.000595441	2	1.03841e-05	7.00136e-08
2	0	0	0	1	36.7773	-0.140329	-0.140504	-0.000546104	2	1.01214e-05	7.67297e-08
2	0	0	0	1	37.2373	-0.16333	-0.163557	-0.000505988	2	9.87921e-06	8.27579e-08
2	0	0	0	1	37.6973	-0.186331	-0.186519	-0.000476796	2	9.65272e-06	8.89318e-08
2	1	0	1	0	38.1467	-0.191231	-0.191442	-0.000311612	2	9.46549e-06	5.96554e-08
2	1	0	1	0	38.6067	-0.16823	-0.168417	-0.000257408	2	9.33731e-06	4.33518e-08
2	1	0	1	0	39.0667	-0.14523	-0.145432	-0.000221068	2	9.22938e-06	3.21504e-08
2	1	0	1	0	39.5267	-0.122229	-0.122406	-0.000192092	2	9.1362e-06	2.35133e-08
2	1	0	1	0	39.9867	-0.0992283	-0.099408	-0.000168565	3	9.05493e-06	1.67567e-08
2	1	0	0	0	40.4469	-0.0762276	-0.0763895	-0.000147158	3	8.98349e-06	1.12414e-08
2	1	0	0	0	40.9069	-0.053227	-0.0534696	-0.000128896	3	8.92117e-06	6.89199e-09
2	1	0	0	0	41.3669	-0.0302264	-0.030362	-0.00010161	3	8.86919e-06	3.08509e-09
2	1	0	0	0	41.8269	-0.00722578	-0.00739972	-4.57231e-05	3	8.83441e-06	3.38338e-10
2	1	0	0	0	42.2869	0.0157748	0.0156908	0.000113037	3	8.8445e-06	1.77365e-09
2	1	0	0	0	42.7469	0.0387755	0.0386001	0.000569705	3	8.98776e-06	2.19907e-08
2	1	0	0	0	43.2069	0.0617761	0.0616547	0.00136615	3	9.42842e-06	8.42296e-08
2	1	0	0	0	43.6669	0.0847767	0.0846424	0.00190344	3	1.02067e-05	1.61112e-07
2	1	0	0	0	44.1269	0.107777	0.107608	0.00181584	3	1.10803e-05	1.95399e-07
2	1	0	0	0	44.5869	0.130778	0.130653	0.00153428	3	1.1852e-05	2.00458e-07
2	1	0	0	0	45.0469	0.153779	0.153591	0.00131746	3	1.25061e-05	2.0235e-07
2	1	0	0	0	45.5069	0.176779	0.176604	0.00116955	3	1.30772e-05	2.06547e-07
2	1	0	0	0	45.9669	0.19978	0.199607	0.00106601	3	1.35915e-05	2.12782e-07
2	1	0	0	0	46.4269	0.22278	0.22262	0.000994718	3	1.40661e-05	2.21444e-07
2	1	0	0	0	46.8869	0.245781	0.245655	0.000936635	3	1.45114e-05	2.30089e-07
2	1	0	0	0	47.3469	0.268779	0.268692	0.000893715	3	1.49337e-05	2.40134e-07
2	1	0	1	0	47.8071	0.291782	0.291652	0.000871372	3	1.53406e-05	2.54137e-07
2	0	0	1	0	48.2475	0.286182	0.286012	0.000676968	3	1.56801e-05	1.93621e-07
2	0	0	0	0	48.7077	0.263181	0.263026	0.000608564	3	1.59736e-05	1.60068e-07
2	0	0	0	0	49.1677	0.240181	0.240056	0.00056294	3	1.62418e-05	1.35137e-07
2	0	0	0	0	49.6277	0.21718	0.217017	0.000526561	3	1.64911e-05	1.14273e-07
2	0	0	0	0	50.0877	0.19418	0.194008	0.000489613	3	1.67238e-05	9.49889e-08
2	0	0	0	0	50.5477	0.171179	0.171028	0.000453324	3	1.69401e-05	7.7531e-08
2	0	0	0	0	51.0077	0.148178	0.147963	0.000412733	3	1.71389e-05	6.1069e-08
2	0	0	0	0	51.4677	0.125178	0.125006	0.000351898	3	1.73151e-05	4.39892e-08
2	0	0	0	0	51.9277	0.102177	0.102016	0.000221995	3	1.74504e-05	2.2647e-08
2	0	0	0	0	52.3877	0.0791765	0.0790386	-0.000105917	3	1.74879e-05	-8.37149e-09
2	0	0	0	0	52.8477	0.0561759	0.0560106	-0.00081573	3	1.72894e-05	-4.56895e-08
2	0	0	0	0	53.3077	0.0331753	0.0330122	-0.00156831	3	1.67229e-05	-5.17734e-08
2	0	0	0	0	53.7677	0.0101747	0.00997042	-0.00161162	3	1.59624e-05	-1.60685e-08
2	0	0	0	0	54.2277	-0.0128259	-0.0130544	-0.00127487	3	1.52964e-05	1.66427e-08
2	0	0	0	0	54.6877	-0.0358266	-0.0359415	-0.00100514	3	1.47757e-05	3.61264e-08
2	0	0	0	0	55.1477	-0.0588272	-0.0589971	-0.000838217	3	1.43536e-05	4.94523e-08
2	0	0	0	0	55.6077	-0.0818278	-0.0820442	-0.000726727	3	1.39944e-05	5.96237e-08
2	0	0	1	0	56.0679	-0.104828	-0.105037	-0.000649366	3	1.36781e-05	6.82076e-08
2	0	0	1	0	56.5279	-0.127829	-0.128048	-0.000590171	3	1.33929e-05	7.55703e-08
2	0	0	1	0	56.9879	-0.15083	-0.151006	-0.000544112	3	1.31314e-05	8.21643e-08
2	0	0	1	0	57.4479	-0.17383	-0.174034	-0.000509176	3	1.28888e-05	8.86141e-08
2	0	0	1	0	57.9079	-0.196831	-0.197032	-0.000481901	3	1.26604e-05	9.49498e-08
2	1	0	0	1	58.3573	-0.180731	-0.180875	-0.000296491	3	1.25044e-05	5.3628e-08
2	1	0	0	1	58.8173	-0.15773	-0.157885	-0.000253352	3	1.23801e-05	4.00007e-08
2	1	0	0	1	59.2773	-0.134729	-0.134866	-0.000220605	3	1.2273e-05	2.97521e-08
2	1	0	0	1	59.7373	-0.111729	-0.111881	-0.000192217	3	1.21796e-05	2.15055e-08
2	1	0	1	1	60.1975	-0.088728	-0.0889011	-0.000172056	3	1.20973e-05	1.52959e-08
2	1	0	1	1	60.6575	-0.0657274	-0.0658741	-0.000149769	3	1.20244e-05	9.8659e-09
2	1	0	1	1	60.809	-0.0581522	-0.0582868	-0.000144057	3	1.20024e-05	8.39659e-09