File: AutoAnalysis Examples/EC/C003A-5ppb-A_C01.mpt
EC-Lab ASCII FILE
Nb header lines : 59

Cyclic Voltammetry

Run on channel : 1 (SN 22398)
User :
CE vs. WE compliance from -10 V to 10 V
Electrode connection : standard
Ewe ctrl range : min = -1.00 V, max = 1.00 V
Safety Limits :
	Ewe min = -2.00 V
	Ewe max = 2.00 V
	|I| = 50.000 mA
	for t > 10 ms
Acquisition started on : 11/21/2018 10:00:20
Technique started on : 11/21/2018 10:00:20
Saved on :
	File : C003A-5ppb-A_C01.mpr
	Directory : \\ECCOMPUTER\Users\Lab User\Google Drive\Electrochemical Data\EC-Lab\Data\FREDsense\Tim\2018.11.21 - EC comparison to High Throughput\
	Host : 172.16.1.30
Device : SP-50 (SN 0301030103010301)
Address : USB
EC-Lab for windows v11.02 (software)
Internet server v11.02 (firmware)
Command interpretor v11.02 (firmware)
Electrode material : Au/Pd
Initial state :
Electrolyte : NaCl (0.2M)
Comments : Fe(CN)63-/Fe(CN)64- 5.10-3 M
Reference electrode : SCE Saturated Calomel Electrode (0.241 V)
Electrode surface area : 0.001 cm²
Characteristic mass : 0.001 g
Equivalent Weight : 0.000 g/eq.
Density : 0.000 g/cm3
Cycle Definition : Charge/Discharge alternance
Ei (V)              -0.100
vs.                 Ref
dE/dt               50.000
dE/dt unit          mV/s
E1 (V)              0.300
vs.                 Ref
Step percent        50
N                   10
E range min (V)     -1.000
E range max (V)     1.000
I Range             Auto
I Range min         Unset
I Range max         Unset
I Range init        Unset
Bandwidth           5
E2 (V)              -0.200
vs.                 Ref
nc cycles           2
Reverse Scan        1
Ef (V)              0.000
vs.                 Eoc

mode	ox/red	error	control changes	counter inc.	time/s	control/V	Ewe/V	<I>/mA	cycle number	(Q-Qo)/C	P/W
2	1	0	0	0	0.000000000000000E+000	-0.0984934	-0.0987167	-9.08585e-05	1	0.0000000E+000	8.96925e-09
2	1	0	1	0	0.4867	-0.0741678	-0.0743381	5.23048e-05	1	1.88631e-08	-3.88824e-09
2	1	0	1	0	0.9467	-0.0511673	-0.0512676	6.24563e-05	1	4.67734e-08	-3.20199e-09
2	1	0	1	0	1.4067	-0.0281668	-0.0282809	7.56495e-05	1	7.97119e-08	-2.13944e-09
2	1	0	1	0	1.8667	-0.00516631	-0.00529106	9.95665e-05	1	1.20316e-07	-5.26813e-10
2	1	0	1	0	2.3267	0.0178342	0.0177486	0.000176322	1	1.8165e-07	3.12947e-09
2	1	0	1	0	2.7867	0.0408347	0.0406749	0.000385014	1	3.0535e-07	1.56604e-08
2	1	0	1	0	3.2467	0.0638352	0.0637389	0.000701454	1	5.57566e-07	4.47099e-08
2	1	0	1	0	3.7067	0.0868357	0.0867076	0.000836358	1	9.23428e-07	7.25186e-08
2	1	0	1	0	4.1667	0.109836	0.109723	0.000769174	1	1.29785e-06	8.4396e-08
2	1	0	1	0	4.6267	0.132837	0.132738	0.000677365	1	1.63087e-06	8.99122e-08
2	1	0	1	0	5.0867	0.155837	0.1557	0.000613141	1	1.92774e-06	9.54663e-08
2	1	0	1	0	5.5467	0.178838	0.178759	0.000575075	1	2.20146e-06	1.028e-07
2	1	0	1	0	6.0067	0.201838	0.201691	0.000551149	1	2.46145e-06	1.11162e-07
2	1	0	1	0	6.4667	0.224839	0.224722	0.000542632	1	2.71422e-06	1.21941e-07
2	1	0	1	0	6.9267	0.247839	0.247694	0.000541697	1	2.96423e-06	1.34175e-07
2	1	0	1	0	7.3867	0.27084	0.270737	0.000544642	1	3.21497e-06	1.47455e-07
2	1	0	1	0	7.8467	0.29384	0.293652	0.000553659	1	3.46916e-06	1.62583e-07
2	0	0	0	0	8.2953	0.28374	0.283562	0.000330873	1	3.6611e-06	9.38229e-08
2	0	0	0	0	8.7553	0.260739	0.260576	0.000257533	1	3.79323e-06	6.71072e-08
2	0	0	0	0	9.2153	0.237739	0.237555	0.000221658	1	3.90193e-06	5.26559e-08
2	0	0	0	0	9.6753	0.214738	0.214555	0.000194645	1	3.99658e-06	4.1762e-08
2	0	0	0	0	10.1353	0.191738	0.191545	0.000173534	1	4.08027e-06	3.32397e-08
2	0	0	0	0	10.5953	0.168737	0.168565	0.000155132	1	4.15543e-06	2.61498e-08
2	0	0	0	0	11.0553	0.145737	0.145559	0.000133151	1	4.22091e-06	1.93814e-08
2	0	0	0	0	11.5153	0.122736	0.122563	0.000107113	1	4.27549e-06	1.3128e-08
2	0	0	0	0	11.9753	0.099736	0.0995828	4.94468e-05	1	4.31208e-06	4.92405e-09
2	0	0	0	0	12.4353	0.0767355	0.076612	-7.6794e-05	1	4.30935e-06	-5.88334e-09
2	0	0	0	0	12.8953	0.053735	0.0535745	-0.000344567	1	4.21628e-06	-1.846e-08
2	0	0	0	0	13.3553	0.0307345	0.0305793	-0.000608423	1	3.98887e-06	-1.86051e-08
2	0	0	0	0	13.8153	0.00773397	0.00757779	-0.000603044	1	3.69966e-06	-4.56974e-09
2	0	0	0	0	14.2753	-0.0152665	-0.0154672	-0.000480173	1	3.44938e-06	7.42694e-09
2	0	0	0	0	14.7353	-0.038267	-0.0384348	-0.000389476	1	3.2502e-06	1.49694e-08
2	0	0	0	0	15.1953	-0.0612676	-0.0614575	-0.000333209	1	3.08413e-06	2.04782e-08
2	0	0	0	0	15.6553	-0.084268	-0.0844368	-0.000298394	1	2.93843e-06	2.51954e-08
2	0	0	1	0	16.1155	-0.107269	-0.10745	-0.000274298	1	2.80606e-06	2.94733e-08
2	0	0	1	0	16.5755	-0.130269	-0.130414	-0.000257751	1	2.68304e-06	3.36144e-08
2	0	0	1	0	17.0355	-0.15327	-0.153416	-0.000246417	1	2.56656e-06	3.78044e-08
2	0	0	1	0	17.4955	-0.17627	-0.176437	-0.000239188	1	2.45432e-06	4.22014e-08
2	0	0	1	0	17.9555	-0.199271	-0.199393	-0.00023816	1	2.34423e-06	4.74872e-08
2	1	0	1	1	18.4059	-0.17822	-0.178325	-6.33129e-05	1	2.30388e-06	1.12902e-08
2	1	0	1	1	18.8659	-0.15522	-0.155364	-3.4865e-05	1	2.28328e-06	5.41679e-09
2	1	0	1	1	19.3259	-0.132219	-0.132336	-1.93985e-05	1	2.2725e-06	2.56713e-09
2	1	0	1	1	19.7859	-0.109219	-0.109335	-5.53404e-06	1	2.26854e-06	6.05064e-10
2	1	0	0	1	20.2461	-0.0862181	-0.0863641	3.54523e-06	2	2.26986e-06	-3.06181e-10
2	1	0	0	1	20.7061	-0.0632176	-0.0633541	1.32074e-05	2	2.27558e-06	-8.36744e-10
2	1	0	0	1	21.1661	-0.0402171	-0.0403367	2.34525e-05	2	2.28531e-06	-9.45996e-10
2	1	0	0	1	21.6261	-0.0172166	-0.0173426	3.72092e-05	2	2.30029e-06	-6.45303e-10
2	1	0	0	1	22.0861	0.00578393	0.00567486	7.82638e-05	2	2.32681e-06	4.44136e-10
2	1	0	0	1	22.5461	0.0287844	0.028669	0.000199055	2	2.3874e-06	5.70671e-09
2	1	0	0	1	23.0061	0.0517849	0.0516758	0.000458332	2	2.53512e-06	2.36847e-08
2	1	0	0	1	23.4661	0.0747854	0.0747197	0.000710031	2	2.81107e-06	5.30533e-08
2	1	0	0	1	23.9261	0.0977859	0.0976513	0.000738949	2	3.15383e-06	7.21593e-08
2	1	0	0	1	24.3861	0.120786	0.120688	0.000647884	2	3.47502e-06	7.81917e-08
2	1	0	0	1	24.8461	0.143787	0.143637	0.000562016	2	3.75323e-06	8.07265e-08
2	1	0	0	1	25.3061	0.166787	0.166638	0.000503621	2	3.99872e-06	8.39222e-08
2	1	0	0	1	25.7661	0.189788	0.189675	0.000465339	2	4.22257e-06	8.82634e-08
2	1	0	0	1	26.2261	0.212788	0.212647	0.000442931	2	4.43266e-06	9.4188e-08
2	1	0	0	1	26.6861	0.235789	0.235671	0.000431204	2	4.63462e-06	1.01622e-07
2	1	0	0	1	27.1461	0.258789	0.258637	0.000427703	2	4.83304e-06	1.1062e-07
2	1	0	0	1	27.6061	0.28179	0.281685	0.000435724	2	5.0325e-06	1.22737e-07
2	0	0	0	1	28.0557	0.29574	0.295576	0.000310978	2	5.22239e-06	9.19177e-08
2	0	0	0	1	28.5157	0.27274	0.272556	0.000229616	2	5.34224e-06	6.25831e-08
2	0	0	0	1	28.9757	0.249739	0.249536	0.00019224	2	5.43774e-06	4.7971e-08
2	0	0	0	1	29.4357	0.226739	0.226548	0.000170991	2	5.51995e-06	3.87375e-08
2	0	0	0	1	29.8957	0.203738	0.203562	0.000150539	2	5.59279e-06	3.06441e-08
2	0	0	0	1	30.3557	0.180738	0.180543	0.000135182	2	5.65773e-06	2.44063e-08
2	0	0	0	1	30.8157	0.157737	0.157579	0.000119076	2	5.71531e-06	1.87639e-08
2	0	0	0	1	31.2757	0.134737	0.134565	9.81304e-05	2	5.76447e-06	1.32049e-08
2	0	0	0	1	31.7357	0.111736	0.111557	6.2988e-05	2	5.80157e-06	7.02674e-09
2	0	0	0	1	32.1957	0.0887357	0.0885776	-1.34369e-05	2	5.81485e-06	-1.19021e-09
2	0	0	0	1	32.6557	0.0657352	0.0655878	-0.000196077	2	5.77126e-06	-1.28603e-08
2	0	0	0	1	33.1157	0.0427347	0.042529	-0.000494932	2	5.61255e-06	-2.1049e-08
2	0	0	0	1	33.5757	0.0197342	0.0195964	-0.00065324	2	5.33637e-06	-1.28012e-08
2	0	0	0	1	34.0357	-0.00326627	-0.003421	-0.000567504	2	5.04965e-06	1.94143e-09
2	0	0	0	1	34.4957	-0.0262668	-0.026413	-0.000455198	2	4.81473e-06	1.20232e-08
2	0	0	0	1	34.9557	-0.0492673	-0.0493954	-0.000380706	2	4.62298e-06	1.88051e-08
2	0	0	0	1	35.4157	-0.0722678	-0.0724362	-0.000335361	2	4.45799e-06	2.42923e-08
2	0	0	0	1	35.8757	-0.0952683	-0.0953847	-0.000306139	2	4.31015e-06	2.9201e-08
2	0	0	1	1	36.3359	-0.118269	-0.118416	-0.000282362	2	4.17408e-06	3.34361e-08
2	0	0	1	1	36.7959	-0.141269	-0.141405	-0.000269232	2	4.04656e-06	3.80707e-08
2	0	0	1	1	37.2559	-0.16427	-0.164412	-0.000256537	2	3.92497e-06	4.21777e-08
2	0	0	1	1	37.7159	-0.18727	-0.187444	-0.000252508	2	3.80708e-06	4.73311e-08
2	1	0	1	0	38.1663	-0.19022	-0.190343	-9.82221e-05	2	3.72024e-06	1.86959e-08
2	1	0	1	0	38.6263	-0.16722	-0.167372	-5.98543e-05	2	3.68642e-06	1.0018e-08
2	1	0	1	0	39.0863	-0.144219	-0.144343	-3.81046e-05	2	3.66544e-06	5.50015e-09
2	1	0	1	0	39.5463	-0.121219	-0.121312	-2.44098e-05	2	3.65261e-06	2.9612e-09
2	1	0	1	0	40.0063	-0.0982184	-0.0983478	-1.21775e-05	3	3.64611e-06	1.19763e-09
2	1	0	0	0	40.4665	-0.0752179	-0.0753409	-1.70273e-06	3	3.64458e-06	1.28285e-10
2	1	0	0	0	40.9265	-0.0522174	-0.05235	1.04306e-05	3	3.64726e-06	-5.46044e-10
2	1	0	0	0	41.3865	-0.0292168	-0.0293612	1.75492e-05	3	3.6544e-06	-5.15266e-10
2	1	0	0	0	41.8465	-0.00621634	-0.00634377	4.08798e-05	3	3.66883e-06	-2.59332e-10
2	1	0	0	0	42.3065	0.0167842	0.0167203	0.000110986	3	3.70251e-06	1.85572e-09
2	1	0	0	0	42.7665	0.0397847	0.0396699	0.000290108	3	3.79061e-06	1.15085e-08
2	1	0	0	0	43.2265	0.0627852	0.0626671	0.000572425	3	3.98986e-06	3.58723e-08
2	1	0	0	0	43.6865	0.0857857	0.0856581	0.000728179	3	4.29976e-06	6.23744e-08
2	1	0	0	0	44.1465	0.108786	0.108681	0.000684616	3	4.63103e-06	7.44046e-08
2	1	0	0	0	44.6065	0.131787	0.131648	0.00058977	3	4.9246e-06	7.76422e-08
2	1	0	0	0	45.0665	0.154787	0.154691	0.000514767	3	5.17865e-06	7.96299e-08
2	1	0	0	0	45.5265	0.177788	0.177643	0.000464866	3	5.40491e-06	8.25802e-08
2	1	0	0	0	45.9865	0.200788	0.200679	0.000433661	3	5.61277e-06	8.70268e-08
2	1	0	0	0	46.4465	0.223789	0.223607	0.000413432	3	5.80866e-06	9.24462e-08
2	1	0	0	0	46.9065	0.246789	0.246672	0.000401935	3	5.99721e-06	9.9146e-08
2	1	0	0	0	47.3665	0.26979	0.269694	0.000397909	3	6.18261e-06	1.07313e-07
2	1	0	0	0	47.8265	0.29279	0.292673	0.000408705	3	6.36938e-06	1.19617e-07
2	0	0	0	0	48.2761	0.28474	0.284581	0.00023631	3	6.51017e-06	6.72494e-08
2	0	0	0	0	48.7361	0.261739	0.261619	0.000193551	3	6.60714e-06	5.06366e-08
2	0	0	0	0	49.1961	0.238739	0.23855	0.000167354	3	6.6888e-06	3.99223e-08
2	0	0	0	0	49.6561	0.215738	0.215578	0.000148264	3	6.76063e-06	3.19626e-08
2	0	0	0	0	50.1161	0.192738	0.192652	0.000132285	3	6.82468e-06	2.54851e-08
2	0	0	0	0	50.5761	0.169737	0.169564	0.000118905	3	6.88167e-06	2.0162e-08
2	0	0	0	0	51.0361	0.146737	0.14657	0.000100656	3	6.93131e-06	1.47532e-08
2	0	0	0	0	51.4961	0.123736	0.123595	7.62201e-05	3	6.97167e-06	9.42039e-09
2	0	0	0	0	51.9561	0.100736	0.100563	2.92904e-05	3	6.99637e-06	2.94555e-09
2	0	0	0	0	52.4161	0.0777355	0.0776043	-8.64314e-05	3	6.98607e-06	-6.70745e-09
2	0	0	0	0	52.8761	0.054735	0.054607	-0.000330676	3	6.89419e-06	-1.80572e-08
2	0	0	0	0	53.3361	0.0317345	0.0315896	-0.000606746	3	6.67244e-06	-1.91669e-08
2	0	0	0	0	53.7961	0.00873399	0.008569	-0.000633193	3	6.37591e-06	-5.42583e-09
2	0	0	0	0	54.2561	-0.0142665	-0.0144558	-0.000518303	3	6.10881e-06	7.49251e-09
2	0	0	0	0	54.7161	-0.037267	-0.0373927	-0.000423845	3	5.89287e-06	1.58487e-08
2	0	0	0	0	55.1761	-0.0602675	-0.0604239	-0.000365006	3	5.71153e-06	2.20551e-08
2	0	0	0	0	55.6361	-0.083268	-0.0833724	-0.000328127	3	5.55179e-06	2.73568e-08
2	0	0	1	0	56.0963	-0.106269	-0.106431	-0.000301282	3	5.40641e-06	3.20658e-08
2	0	0	1	0	56.5563	-0.129269	-0.129413	-0.000281438	3	5.2714e-06	3.64216e-08
2	0	0	1	0	57.0163	-0.15227	-0.1524	-0.000269589	3	5.14391e-06	4.10855e-08
2	0	0	1	0	57.4763	-0.17527	-0.1754	-0.000260799	3	5.02152e-06	4.57442e-08
2	0	0	1	0	57.9363	-0.198271	-0.198409	-0.00025683	3	4.90192e-06	5.09574e-08
2	1	0	1	1	58.3867	-0.17922	-0.179322	-7.94877e-05	3	4.8508e-06	1.42539e-08
2	1	0	1	1	58.8467	-0.15622	-0.15635	-5.32073e-05	3	4.82214e-06	8.31898e-09
2	1	0	1	1	59.3067	-0.133219	-0.133336	-3.55575e-05	3	4.80354e-06	4.7411e-09
2	1	0	1	1	59.7667	-0.110219	-0.110347	-2.27829e-05	3	4.79206e-06	2.51403e-09
2	1	0	0	1	60.2269	-0.0872181	-0.0873627	-9.86525e-06	3	4.78619e-06	8.61855e-10
2	1	0	0	1	60.6869	-0.0642176	-0.0643612	-5.19245e-07	3	4.78492e-06	3.34193e-11
2	1	0	1	1	60.7002	-0.0635426	-0.0638343	-3.74468e-06	3	4.78495e-06	2.39039e-10