File: AutoAnalysis Examples/EC/C003A-20ppb-B_C01.mpt
EC-Lab ASCII FILE
Nb header lines : 59

Cyclic Voltammetry

Run on channel : 1 (SN 22398)
User :
CE vs. WE compliance from -10 V to 10 V
Electrode connection : standard
Ewe ctrl range : min = -1.00 V, max = 1.00 V
Safety Limits :
	Ewe min = -2.00 V
	Ewe max = 2.00 V
	|I| = 50.000 mA
	for t > 10 ms
Acquisition started on : 11/21/2018 11:05:29
Technique started on : 11/21/2018 11:05:29
Saved on :
	File : C003A-20ppb-B_C01.mpr
	Directory : \\ECCOMPUTER\Users\Lab User\Google Drive\Electrochemical Data\EC-Lab\Data\FREDsense\Tim\2018.11.21 - EC comparison to High Throughput\
	Host : 172.16.1.30
Device : SP-50 (SN 0301030103010301)
Address : USB
EC-Lab for windows v11.02 (software)
Internet server v11.02 (firmware)
Command interpretor v11.02 (firmware)
Electrode material : Au/Pd
Initial state :
Electrolyte : NaCl (0.2M)
Comments : Fe(CN)63-/Fe(CN)64- 5.10-3 M
Reference electrode : SCE Saturated Calomel Electrode (0.241 V)
Electrode surface area : 0.001 cm²
Characteristic mass : 0.001 g
Equivalent Weight : 0.000 g/eq.
Density : 0.000 g/cm3
Cycle Definition : Charge/Discharge alternance
Ei (V)              -0.100
vs.                 Ref
dE/dt               50.000
dE/dt unit          mV/s
E1 (V)              0.300
vs.                 Ref
Step percent        50
N                   10
E range min (V)     -1.000
E range max (V)     1.000
I Range             Auto
I Range min         Unset
I Range max         Unset
I Range init        Unset
Bandwidth           5
E2 (V)              -0.200
vs.                 Ref
nc cycles           2
Reverse Scan        1
Ef (V)              0.000
vs.                 Eoc

mode	ox/red	error	control changes	counter inc.	time/s	control/V	Ewe/V	<I>/mA	cycle number	(Q-Qo)/C	P/W
2	1	0	1	0	0.000000000000000E+000	-0.0984851	-0.0985258	-0.000118201	1	0.0000000E+000	1.16459e-08
2	1	0	1	0	0.4965	-0.0736591	-0.0739204	3.17652e-05	1	5.76221e-09	-2.34809e-09
2	1	0	1	0	0.9665	-0.0501582	-0.0503527	4.48453e-05	1	2.57906e-08	-2.25808e-09
2	1	0	1	0	1.4365	-0.0266572	-0.0269271	5.77948e-05	1	5.12712e-08	-1.55625e-09
2	1	0	1	0	1.9065	-0.00315627	-0.00334042	8.59246e-05	1	8.42758e-08	-2.87024e-10
2	1	0	1	0	2.3765	0.0203447	0.0201382	0.000190736	1	1.45214e-07	3.84106e-09
2	1	0	1	0	2.8465	0.0438456	0.0436602	0.000506881	1	2.9979e-07	2.21305e-08
2	1	0	1	0	3.3165	0.0673466	0.0671865	0.00102832	1	6.613e-07	6.90889e-08
2	1	0	1	0	3.7865	0.0908475	0.0907032	0.00130743	1	1.22935e-06	1.18588e-07
2	1	0	1	0	4.2565	0.114348	0.114167	0.00121682	1	1.83195e-06	1.3892e-07
2	1	0	1	0	4.7265	0.137849	0.137633	0.00104732	1	2.36363e-06	1.44145e-07
2	1	0	0	0	5.1967	0.16135	0.161158	0.000922202	1	2.82577e-06	1.4862e-07
2	1	0	0	0	5.6667	0.184851	0.184619	0.000841142	1	3.23998e-06	1.5529e-07
2	1	0	0	0	6.1367	0.208352	0.208193	0.000786813	1	3.62295e-06	1.63809e-07
2	1	0	0	0	6.6067	0.231853	0.231731	0.000753626	1	3.98572e-06	1.74639e-07
2	1	0	0	0	7.0767	0.255354	0.255223	0.00073342	1	4.3356e-06	1.87186e-07
2	1	0	0	0	7.5467	0.278855	0.278721	0.000719405	1	4.67795e-06	2.00513e-07
2	0	0	1	0	8.0053	0.298206	0.298019	0.000607888	1	5.00515e-06	1.81162e-07
2	0	0	1	0	8.4753	0.274705	0.274526	0.000483095	1	5.25445e-06	1.32622e-07
2	0	0	1	0	8.9453	0.251204	0.250993	0.000427415	1	5.46618e-06	1.07278e-07
2	0	0	1	0	9.4153	0.227703	0.227515	0.000388888	1	5.65674e-06	8.84779e-08
2	0	0	1	0	9.8853	0.204202	0.204037	0.000358992	1	5.83167e-06	7.32478e-08
2	0	0	1	0	10.3553	0.180701	0.18049	0.000331782	1	5.99312e-06	5.98834e-08
2	0	0	1	0	10.8253	0.1572	0.157027	0.000305648	1	6.14173e-06	4.79952e-08
2	0	0	0	0	11.2955	0.133699	0.133493	0.000263265	1	6.27432e-06	3.5144e-08
2	0	0	0	0	11.7655	0.110198	0.110024	0.0001891	1	6.38189e-06	2.08054e-08
2	0	0	0	0	12.2355	0.0866973	0.0864495	2.87411e-05	1	6.43793e-06	2.48466e-09
2	0	0	0	0	12.7055	0.0631964	0.0629317	-0.000342633	1	6.37274e-06	-2.15625e-08
2	0	0	0	0	13.1755	0.0396955	0.0394765	-0.000840024	1	6.09027e-06	-3.31612e-08
2	0	0	0	0	13.6455	0.0161945	0.0159852	-0.000983547	1	5.64113e-06	-1.57222e-08
2	0	0	0	0	14.1155	-0.00730644	-0.00755486	-0.000800425	1	5.21697e-06	6.04709e-09
2	0	0	0	0	14.5855	-0.0308074	-0.0310398	-0.000619576	1	4.88534e-06	1.92315e-08
2	0	0	0	0	15.0555	-0.0543084	-0.0545417	-0.000506235	1	4.62182e-06	2.76109e-08
2	0	0	0	0	15.5255	-0.0778093	-0.0779991	-0.00043613	1	4.40077e-06	3.40178e-08
2	0	0	1	0	15.9957	-0.10131	-0.101564	-0.000386482	1	4.20736e-06	3.92525e-08
2	0	0	1	0	16.4657	-0.124811	-0.125001	-0.000353191	1	4.03334e-06	4.41491e-08
2	0	0	1	0	16.9357	-0.148312	-0.14855	-0.000325778	1	3.87333e-06	4.83945e-08
2	0	0	1	0	17.4057	-0.171813	-0.171988	-0.000306795	1	3.72352e-06	5.27649e-08
2	0	0	1	0	17.8757	-0.195314	-0.195518	-0.000296528	1	3.58072e-06	5.79767e-08
2	1	0	0	1	18.3351	-0.181714	-0.181932	-0.000142772	1	3.49244e-06	2.59748e-08
2	1	0	0	1	18.8051	-0.158213	-0.158422	-0.000109826	1	3.43495e-06	1.73988e-08
2	1	0	0	1	19.2751	-0.134712	-0.1349	-8.75655e-05	1	3.39021e-06	1.18126e-08
2	1	0	0	1	19.7451	-0.111211	-0.111356	-7.02477e-05	1	3.3547e-06	7.8225e-09
2	1	0	1	1	20.2153	-0.0877097	-0.087959	-5.70051e-05	2	3.32649e-06	5.01411e-09
2	1	0	1	1	20.6853	-0.0642088	-0.0644189	-4.30647e-05	2	3.30444e-06	2.77418e-09
2	1	0	1	1	21.1553	-0.0407078	-0.0408937	-2.98026e-05	2	3.28827e-06	1.21874e-09
2	1	0	1	1	21.6253	-0.0172068	-0.0174183	-9.66918e-06	2	3.27981e-06	1.6842e-10
2	1	0	1	1	22.0953	0.00629411	0.00613241	4.89045e-05	2	3.2881e-06	2.99903e-10
2	1	0	1	1	22.5653	0.0297951	0.0296332	0.000223228	2	3.34647e-06	6.61498e-09
2	1	0	1	1	23.0353	0.053296	0.0531797	0.000629918	2	3.53971e-06	3.34988e-08
2	1	0	1	1	23.5053	0.0767969	0.0765978	0.00108856	2	3.95266e-06	8.33817e-08
2	1	0	1	1	23.9753	0.100298	0.100194	0.00119499	2	4.50664e-06	1.19731e-07
2	1	0	1	1	24.4453	0.123799	0.123599	0.0010497	2	5.03918e-06	1.29743e-07
2	1	0	1	1	24.9154	0.147299	0.147094	0.000893288	2	5.4962e-06	1.31397e-07
2	1	0	0	1	25.3855	0.170801	0.170624	0.00078747	2	5.89166e-06	1.34362e-07
2	1	0	0	1	25.8555	0.194302	0.194135	0.000715933	2	6.24521e-06	1.38988e-07
2	1	0	0	1	26.3255	0.217803	0.21766	0.00066623	2	6.57066e-06	1.45012e-07
2	1	0	0	1	26.7955	0.241304	0.241123	0.000633638	2	6.87716e-06	1.52785e-07
2	1	0	0	1	27.2655	0.264805	0.26463	0.000614114	2	7.17147e-06	1.62513e-07
2	1	0	0	1	27.7355	0.288305	0.288205	0.000606561	2	7.45969e-06	1.74814e-07
2	0	0	0	1	28.1951	0.288705	0.288515	0.000452	2	7.71123e-06	1.30408e-07
2	0	0	0	1	28.6651	0.265205	0.264933	0.000390234	2	7.90693e-06	1.03386e-07
2	0	0	0	1	29.1351	0.241704	0.241468	0.000353754	2	8.08045e-06	8.54205e-08
2	0	0	0	1	29.6051	0.218203	0.218027	0.00032587	2	8.23905e-06	7.10484e-08
2	0	0	0	1	30.0751	0.194702	0.194479	0.000303156	2	8.38538e-06	5.89576e-08
2	0	0	0	1	30.5451	0.171201	0.171036	0.000277471	2	8.52027e-06	4.74574e-08
2	0	0	0	1	31.0151	0.1477	0.147438	0.000245208	2	8.64273e-06	3.6153e-08
2	0	0	1	1	31.4853	0.124199	0.123977	0.000203777	2	8.74865e-06	2.52636e-08
2	0	0	1	1	31.9553	0.100698	0.100472	0.000112615	2	8.82471e-06	1.13146e-08
2	0	0	1	1	32.4253	0.077197	0.0770017	-0.000110545	2	8.83163e-06	-8.51212e-09
2	0	0	1	1	32.8953	0.053696	0.0534468	-0.000558443	2	8.68096e-06	-2.9847e-08
2	0	0	1	1	33.3653	0.0301951	0.0299704	-0.0009767	2	8.30616e-06	-2.92721e-08
2	0	0	1	1	33.8353	0.00669413	0.00641441	-0.000957758	2	7.83534e-06	-6.14345e-09
2	0	0	1	1	34.3053	-0.0168068	-0.016991	-0.000753656	2	7.43207e-06	1.28054e-08
2	0	0	1	1	34.7753	-0.0403078	-0.0405004	-0.000602046	2	7.11499e-06	2.43831e-08
2	0	0	1	1	35.2453	-0.0638087	-0.0640394	-0.000506067	2	6.85496e-06	3.24082e-08
2	0	0	1	1	35.7153	-0.0873097	-0.0875286	-0.000445826	2	6.63113e-06	3.90225e-08
2	0	0	0	1	36.1855	-0.110811	-0.111057	-0.000401106	2	6.43189e-06	4.45456e-08
2	0	0	0	1	36.6555	-0.134312	-0.134542	-0.000367923	2	6.25041e-06	4.9501e-08
2	0	0	0	1	37.1255	-0.157813	-0.158065	-0.000342396	2	6.08218e-06	5.41209e-08
2	0	0	0	1	37.5955	-0.181314	-0.181588	-0.000327234	2	5.92362e-06	5.94217e-08
2	1	0	1	0	38.0549	-0.195714	-0.195881	-0.000203494	2	5.78399e-06	3.98606e-08
2	1	0	1	0	38.5249	-0.172213	-0.172398	-0.00014766	2	5.70469e-06	2.54563e-08
2	1	0	1	0	38.9949	-0.148712	-0.148917	-0.000120261	2	5.64294e-06	1.7909e-08
2	1	0	1	0	39.4649	-0.125211	-0.125375	-0.000100757	2	5.59248e-06	1.26324e-08
2	1	0	1	0	39.9349	-0.10171	-0.101883	-8.34091e-05	2	5.55083e-06	8.49794e-09
2	1	0	0	0	40.4051	-0.0782093	-0.0784125	-6.97708e-05	3	5.51636e-06	5.47091e-09
2	1	0	0	0	40.8751	-0.0547084	-0.0549202	-5.58905e-05	3	5.48818e-06	3.06951e-09
2	1	0	0	0	41.3451	-0.0312074	-0.0313854	-3.95389e-05	3	5.46669e-06	1.24095e-09
2	1	0	0	0	41.8151	-0.00770646	-0.00791212	-1.01726e-05	3	5.45569e-06	8.04868e-11
2	1	0	0	0	42.2851	0.0157945	0.0156428	8.28794e-05	3	5.47101e-06	1.29646e-09
2	1	0	0	0	42.7551	0.0392954	0.0390991	0.000340333	3	5.56302e-06	1.33067e-08
2	1	0	0	0	43.2251	0.0627964	0.0625978	0.000803961	3	5.82843e-06	5.03262e-08
2	1	0	0	0	43.6951	0.0862973	0.0861538	0.00114705	3	6.30177e-06	9.88227e-08
2	1	0	0	0	44.1651	0.109798	0.109624	0.00112381	3	6.84791e-06	1.23197e-07
2	1	0	0	0	44.6351	0.133299	0.133131	0.000960741	3	7.33961e-06	1.27904e-07
2	1	0	1	0	45.1053	0.1568	0.156664	0.000826488	3	7.75926e-06	1.29481e-07
2	1	0	1	0	45.5753	0.180301	0.180154	0.000735511	3	8.12569e-06	1.32505e-07
2	1	0	1	0	46.0453	0.203802	0.203605	0.000671442	3	8.45603e-06	1.36709e-07
2	1	0	1	0	46.5153	0.227303	0.22711	0.000626352	3	8.76174e-06	1.42251e-07
2	1	0	1	0	46.9853	0.250804	0.250642	0.000595878	3	9.05026e-06	1.49352e-07
2	1	0	1	0	47.4553	0.274305	0.274185	0.000579687	3	9.32757e-06	1.58941e-07
2	1	0	1	0	47.9253	0.297806	0.297662	0.000574238	3	9.59959e-06	1.70929e-07
2	0	0	1	0	48.3849	0.279205	0.279034	0.000397556	3	9.80471e-06	1.10932e-07
2	0	0	1	0	48.8549	0.255704	0.255509	0.000356111	3	9.98022e-06	9.09894e-08
2	0	0	1	0	49.3249	0.232203	0.232057	0.000326285	3	1.01389e-05	7.57166e-08
2	0	0	1	0	49.7949	0.208702	0.208519	0.000301303	3	1.02848e-05	6.28273e-08
2	0	0	1	0	50.2649	0.185201	0.185005	0.000276946	3	1.04196e-05	5.12365e-08
2	0	0	1	0	50.7349	0.1617	0.161511	0.000252153	3	1.05431e-05	4.07254e-08
2	0	0	0	0	51.2051	0.138199	0.137977	0.000218569	3	1.06535e-05	3.01574e-08
2	0	0	0	0	51.6751	0.114698	0.114498	0.000164559	3	1.07442e-05	1.88418e-08
2	0	0	0	0	52.1451	0.0911975	0.0909911	3.70025e-05	3	1.07948e-05	3.3669e-09
2	0	0	0	0	52.6151	0.0676966	0.0674383	-0.000268838	3	1.07488e-05	-1.813e-08
2	0	0	0	0	53.0851	0.0441956	0.0440414	-0.000760276	3	1.05082e-05	-3.34836e-08
2	0	0	0	0	53.5551	0.0206947	0.0204918	-0.00102076	3	1.00701e-05	-2.09171e-08
2	0	0	0	0	54.0251	-0.00280626	-0.00307901	-0.000885372	3	9.61262e-06	2.72607e-09
2	0	0	0	0	54.4951	-0.0263072	-0.0265502	-0.000695056	3	9.24234e-06	1.84538e-08
2	0	0	0	0	54.9651	-0.0498082	-0.0500775	-0.000570385	3	8.94657e-06	2.85635e-08
2	0	0	0	0	55.4351	-0.0733091	-0.073537	-0.000491346	3	8.69791e-06	3.61321e-08
2	0	0	0	0	55.9051	-0.0968101	-0.0970591	-0.000435805	3	8.48004e-06	4.22988e-08
2	0	0	1	0	56.3753	-0.120311	-0.120538	-0.000397091	3	8.28369e-06	4.78644e-08
2	0	0	1	0	56.8453	-0.143812	-0.144012	-0.000366668	3	8.10339e-06	5.28047e-08
2	0	0	1	0	57.3153	-0.167313	-0.167608	-0.00034639	3	7.93525e-06	5.80579e-08
2	0	0	1	0	57.7853	-0.190814	-0.191029	-0.000330305	3	7.77572e-06	6.30978e-08
2	1	0	0	1	58.2447	-0.186214	-0.186465	-0.000181601	3	7.65987e-06	3.38622e-08
2	1	0	0	1	58.7147	-0.162713	-0.162907	-0.000142813	3	7.58579e-06	2.32652e-08
2	1	0	0	1	59.1847	-0.139212	-0.139399	-0.000119286	3	7.52586e-06	1.66285e-08
2	1	0	0	1	59.6547	-0.115711	-0.115891	-9.91283e-05	3	7.47611e-06	1.14881e-08
2	1	0	1	1	60.1249	-0.0922099	-0.092438	-8.17947e-05	3	7.4346e-06	7.56093e-09
2	1	0	1	1	60.5949	-0.0687089	-0.0689276	-6.94582e-05	3	7.39997e-06	4.78758e-09
2	1	0	1	1	61.0649	-0.045208	-0.0453865	-5.43643e-05	3	7.3717e-06	2.4674e-09
2	1	0	1	1	61.4064	-0.0281323	-0.0285358	-3.35685e-05	3	7.35574e-06	9.57904e-10