File: AutoAnalysis Examples/EC/C003B-0ppb-B_C01.mpt
EC-Lab ASCII FILE
Nb header lines : 59

Cyclic Voltammetry

Run on channel : 1 (SN 22398)
User :
CE vs. WE compliance from -10 V to 10 V
Electrode connection : standard
Ewe ctrl range : min = -1.00 V, max = 1.00 V
Safety Limits :
	Ewe min = -2.00 V
	Ewe max = 2.00 V
	|I| = 50.000 mA
	for t > 10 ms
Acquisition started on : 11/21/2018 11:08:09
Technique started on : 11/21/2018 11:08:09
Saved on :
	File : C003B-0ppb-B_C01.mpr
	Directory : \\ECCOMPUTER\Users\Lab User\Google Drive\Electrochemical Data\EC-Lab\Data\FREDsense\Tim\2018.11.21 - EC comparison to High Throughput\
	Host : 172.16.1.30
Device : SP-50 (SN 0301030103010301)
Address : USB
EC-Lab for windows v11.02 (software)
Internet server v11.02 (firmware)
Command interpretor v11.02 (firmware)
Electrode material : Au/Pd
Initial state :
Electrolyte : NaCl (0.2M)
Comments : Fe(CN)63-/Fe(CN)64- 5.10-3 M
Reference electrode : SCE Saturated Calomel Electrode (0.241 V)
Electrode surface area : 0.001 cm²
Characteristic mass : 0.001 g
Equivalent Weight : 0.000 g/eq.
Density : 0.000 g/cm3
Cycle Definition : Charge/Discharge alternance
Ei (V)              -0.100
vs.                 Ref
dE/dt               50.000
dE/dt unit          mV/s
E1 (V)              0.300
vs.                 Ref
Step percent        50
N                   10
E range min (V)     -1.000
E range max (V)     1.000
I Range             Auto
I Range min         Unset
I Range max         Unset
I Range init        Unset
Bandwidth           5
E2 (V)              -0.200
vs.                 Ref
nc cycles           2
Reverse Scan        1
Ef (V)              0.000
vs.                 Eoc

mode	ox/red	error	control changes	counter inc.	time/s	control/V	Ewe/V	<I>/mA	cycle number	(Q-Qo)/C	P/W
2	1	0	1	0	0.000000000000000E+000	-0.0984851	-0.0987966	-5.39779e-05	1	0.0000000E+000	5.33283e-09
2	1	0	1	0	0.4865	-0.0741592	-0.0743819	5.54207e-05	1	1.8931e-08	-4.1223e-09
2	1	0	1	0	0.9465	-0.0511582	-0.0513528	6.66621e-05	1	4.86965e-08	-3.42329e-09
2	1	0	1	0	1.4065	-0.0281573	-0.0283492	7.85111e-05	1	8.33211e-08	-2.22573e-09
2	1	0	1	0	1.8665	-0.00515635	-0.00534768	0.000107757	1	1.26126e-07	-5.76251e-10
2	1	0	1	0	2.3265	0.0178446	0.0177015	0.000197835	1	1.93235e-07	3.50198e-09
2	1	0	1	0	2.7865	0.0408455	0.0407497	0.000479693	1	3.41027e-07	1.95474e-08
2	1	0	1	0	3.2465	0.0638464	0.0637056	0.000955103	1	6.7254e-07	6.08454e-08
2	1	0	1	0	3.7065	0.0868473	0.0866711	0.00116667	1	1.17943e-06	1.01116e-07
2	1	0	1	0	4.1665	0.109848	0.109686	0.00105579	1	1.69745e-06	1.15806e-07
2	1	0	1	0	4.6265	0.132849	0.132744	0.000907677	1	2.1484e-06	1.20489e-07
2	1	0	0	0	5.0867	0.15585	0.155652	0.000809681	1	2.54312e-06	1.26029e-07
2	1	0	0	0	5.5467	0.178851	0.17868	0.000747657	1	2.90161e-06	1.33592e-07
2	1	0	0	0	6.0067	0.201852	0.201661	0.000709227	1	3.23761e-06	1.43023e-07
2	1	0	0	0	6.4667	0.224853	0.224671	0.000689742	1	3.56006e-06	1.54965e-07
2	1	0	0	0	6.9267	0.247854	0.247741	0.000676807	1	3.87493e-06	1.67673e-07
2	1	0	0	0	7.3867	0.270855	0.270706	0.000672273	1	4.18667e-06	1.81988e-07
2	1	0	0	0	7.8467	0.293856	0.293738	0.000678146	1	4.49882e-06	1.99197e-07
2	0	0	1	0	8.2953	0.283705	0.283494	0.000439635	1	4.74203e-06	1.24634e-07
2	0	0	1	0	8.7553	0.260704	0.260504	0.00036542	1	4.92388e-06	9.51933e-08
2	0	0	1	0	9.2153	0.237703	0.237504	0.000323003	1	5.08021e-06	7.67144e-08
2	0	0	1	0	9.6753	0.214702	0.214524	0.000290487	1	5.22017e-06	6.23166e-08
2	0	0	1	0	10.1353	0.191702	0.191439	0.000267097	1	5.34755e-06	5.11327e-08
2	0	0	1	0	10.5953	0.168701	0.168478	0.000244293	1	5.46383e-06	4.11579e-08
2	0	0	0	0	11.0555	0.1457	0.145497	0.000215454	1	5.56877e-06	3.13481e-08
2	0	0	0	0	11.5155	0.122699	0.122499	0.000177203	1	5.6591e-06	2.17072e-08
2	0	0	0	0	11.9755	0.0996979	0.0994626	9.08635e-05	1	5.72284e-06	9.03752e-09
2	0	0	0	0	12.4355	0.0766969	0.0765448	-0.000130869	1	5.72086e-06	-1.00173e-08
2	0	0	0	0	12.8955	0.053696	0.0535178	-0.00057239	1	5.56433e-06	-3.06331e-08
2	0	0	0	0	13.3555	0.0306951	0.0304665	-0.000894914	1	5.20914e-06	-2.72649e-08
2	0	0	0	0	13.8155	0.00769417	0.00747771	-0.000793347	1	4.80969e-06	-5.93242e-09
2	0	0	0	0	14.2755	-0.0153068	-0.015509	-0.000611413	1	4.48772e-06	9.48239e-09
2	0	0	0	0	14.7355	-0.0383077	-0.0385137	-0.000490177	1	4.23607e-06	1.88785e-08
2	0	0	0	0	15.1955	-0.0613086	-0.0615947	-0.00041927	1	4.0273e-06	2.58248e-08
2	0	0	0	0	15.6555	-0.0843096	-0.0845549	-0.000372224	1	3.84536e-06	3.14733e-08
2	0	0	1	0	16.1157	-0.107311	-0.107534	-0.000338593	1	3.68148e-06	3.64103e-08
2	0	0	1	0	16.5757	-0.130311	-0.130547	-0.000315907	1	3.53046e-06	4.12409e-08
2	0	0	1	0	17.0357	-0.153312	-0.153544	-0.000299273	1	3.38876e-06	4.59515e-08
2	0	0	1	0	17.4957	-0.176313	-0.176505	-0.000287755	1	3.25341e-06	5.07901e-08
2	0	0	1	0	17.9557	-0.199314	-0.19949	-0.000283086	1	3.12175e-06	5.6473e-08
2	1	0	0	1	18.4051	-0.178213	-0.178408	-9.68761e-05	1	3.06529e-06	1.72835e-08
2	1	0	0	1	18.8651	-0.155212	-0.155382	-6.55315e-05	1	3.02988e-06	1.01824e-08
2	1	0	0	1	19.3251	-0.132212	-0.132365	-4.60198e-05	1	3.00593e-06	6.09144e-09
2	1	0	0	1	19.7851	-0.109211	-0.109359	-2.9232e-05	1	2.98981e-06	3.19677e-09
2	1	0	1	1	20.2453	-0.0862097	-0.0864048	-1.90452e-05	2	2.98014e-06	1.6456e-09
2	1	0	1	1	20.7053	-0.0632087	-0.0634054	-7.00722e-06	2	2.9755e-06	4.44295e-10
2	1	0	1	1	21.1653	-0.0402078	-0.0404102	5.55362e-06	2	2.97738e-06	-2.24423e-10
2	1	0	1	1	21.6253	-0.0172068	-0.0173875	2.06157e-05	2	2.98395e-06	-3.58455e-10
2	1	0	1	1	22.0853	0.00579409	0.00559599	7.06276e-05	2	3.00375e-06	3.95232e-10
2	1	0	1	1	22.5453	0.028795	0.028642	0.000229034	2	3.06708e-06	6.56001e-09
2	1	0	1	1	23.0053	0.0517959	0.0516648	0.000600732	2	3.25116e-06	3.10367e-08
2	1	0	1	1	23.4653	0.0747969	0.0746154	0.000992366	2	3.62715e-06	7.40458e-08
2	1	0	1	1	23.9253	0.0977978	0.0976296	0.00103947	2	4.10961e-06	1.01483e-07
2	1	0	1	1	24.3853	0.120799	0.120627	0.000895752	2	4.55772e-06	1.08052e-07
2	1	0	1	1	24.8453	0.1438	0.143619	0.000765966	2	4.93961e-06	1.10007e-07
2	1	0	0	1	25.3055	0.166801	0.166646	0.000680138	2	5.27211e-06	1.13342e-07
2	1	0	0	1	25.7655	0.189801	0.189594	0.000622784	2	5.57247e-06	1.18076e-07
2	1	0	0	1	26.2255	0.212802	0.212648	0.000585995	2	5.85158e-06	1.24611e-07
2	1	0	0	1	26.6855	0.235803	0.235648	0.00056392	2	6.11693e-06	1.32887e-07
2	1	0	0	1	27.1455	0.258804	0.258632	0.000551363	2	6.37429e-06	1.426e-07
2	1	0	0	1	27.6055	0.281805	0.281679	0.000551677	2	6.62898e-06	1.55396e-07
2	0	0	0	1	28.0551	0.295706	0.295522	0.000413711	2	6.86923e-06	1.22261e-07
2	0	0	0	1	28.5151	0.272705	0.27252	0.000327599	2	7.03554e-06	8.92775e-08
2	0	0	0	1	28.9751	0.249704	0.24954	0.000286151	2	7.1754e-06	7.14061e-08
2	0	0	0	1	29.4351	0.226703	0.226556	0.000262225	2	7.30012e-06	5.94085e-08
2	0	0	0	1	29.8951	0.203702	0.203479	0.000236856	2	7.41373e-06	4.81952e-08
2	0	0	0	1	30.3551	0.180701	0.180469	0.000217604	2	7.51727e-06	3.92708e-08
2	0	0	0	1	30.8151	0.1577	0.157548	0.00019512	2	7.61142e-06	3.07407e-08
2	0	0	1	1	31.2753	0.134699	0.134539	0.000167905	2	7.69453e-06	2.25897e-08
2	0	0	1	1	31.7353	0.111698	0.111514	0.000118197	2	7.76067e-06	1.31806e-08
2	0	0	1	1	32.1953	0.0886974	0.0885369	-1.18754e-05	2	7.78898e-06	-1.05141e-09
2	0	0	1	1	32.6553	0.0656965	0.0654654	-0.000326619	2	7.71982e-06	-2.13823e-08
2	0	0	1	1	33.1153	0.0426956	0.0424682	-0.000779339	2	7.46209e-06	-3.30971e-08
2	0	0	1	1	33.5753	0.0196946	0.019472	-0.000905871	2	7.05514e-06	-1.76391e-08
2	0	0	1	1	34.0353	-0.00330628	-0.00353486	-0.000734768	2	6.67379e-06	2.5973e-09
2	0	0	1	1	34.4953	-0.0263072	-0.0266011	-0.000578737	2	6.37357e-06	1.5395e-08
2	0	0	1	1	34.9553	-0.0493081	-0.0495273	-0.000482756	2	6.13037e-06	2.39096e-08
2	0	0	1	1	35.4153	-0.0723091	-0.0725543	-0.000423451	2	5.92206e-06	3.07232e-08
2	0	0	1	1	35.8753	-0.09531	-0.0955335	-0.000383087	2	5.73673e-06	3.65977e-08
2	0	0	0	1	36.3355	-0.118311	-0.118527	-0.000351488	2	5.56746e-06	4.16607e-08
2	0	0	0	1	36.7955	-0.141312	-0.141489	-0.000331134	2	5.41002e-06	4.68518e-08
2	0	0	0	1	37.2555	-0.164313	-0.164558	-0.000314828	2	5.26121e-06	5.18076e-08
2	0	0	0	1	37.7155	-0.187314	-0.18758	-0.000306182	2	5.11819e-06	5.74336e-08
2	1	0	1	0	38.1649	-0.190214	-0.190377	-0.000139951	2	5.00998e-06	2.66435e-08
2	1	0	1	0	38.6249	-0.167213	-0.167404	-9.66271e-05	2	4.95773e-06	1.61757e-08
2	1	0	1	0	39.0849	-0.144212	-0.144396	-7.26818e-05	2	4.92007e-06	1.04949e-08
2	1	0	1	0	39.5449	-0.121211	-0.121406	-5.68267e-05	2	4.89218e-06	6.89909e-09
2	1	0	0	0	40.0051	-0.0982101	-0.098398	-4.05652e-05	3	4.87173e-06	3.99154e-09
2	1	0	0	0	40.4651	-0.0752092	-0.0754283	-2.82004e-05	3	4.85736e-06	2.12711e-09
2	1	0	0	0	40.9251	-0.0522083	-0.0524215	-1.37601e-05	3	4.84817e-06	7.21327e-10
2	1	0	0	0	41.3851	-0.0292073	-0.0293796	-3.13881e-06	3	4.84449e-06	9.22171e-11
2	1	0	0	0	41.8451	-0.0062064	-0.0064131	2.42509e-05	3	4.84963e-06	-1.55524e-10
2	1	0	0	0	42.3051	0.0167945	0.0165471	0.000111603	3	4.87845e-06	1.8467e-09
2	1	0	0	0	42.7651	0.0397955	0.0396355	0.000358366	3	4.979e-06	1.4204e-08
2	1	0	0	0	43.2251	0.0627964	0.0626784	0.000779645	3	5.23946e-06	4.88669e-08
2	1	0	0	0	43.6851	0.0857973	0.0856163	0.00103089	3	5.67125e-06	8.82608e-08
2	1	0	0	0	44.1451	0.108798	0.108589	0.000958042	3	6.13771e-06	1.04033e-07
2	1	0	0	0	44.6051	0.131799	0.131628	0.000812569	3	6.54555e-06	1.06957e-07
2	1	0	1	0	45.0653	0.1548	0.154672	0.000703252	3	6.89389e-06	1.08773e-07
2	1	0	1	0	45.5253	0.177801	0.177615	0.000630543	3	7.20098e-06	1.11994e-07
2	1	0	1	0	45.9853	0.200802	0.20065	0.000583036	3	7.48074e-06	1.16986e-07
2	1	0	1	0	46.4453	0.223803	0.22365	0.000549685	3	7.74215e-06	1.22937e-07
2	1	0	1	0	46.9053	0.246804	0.246646	0.000529062	3	7.99123e-06	1.30491e-07
2	1	0	1	0	47.3653	0.269805	0.269644	0.000519516	3	8.23299e-06	1.40085e-07
2	1	0	1	0	47.8253	0.292806	0.292607	0.000520682	3	8.4726e-06	1.52355e-07
2	0	0	1	0	48.2749	0.284705	0.28454	0.000335863	3	8.66012e-06	9.55664e-08
2	0	0	1	0	48.7349	0.261704	0.261489	0.000288636	3	8.80178e-06	7.54751e-08
2	0	0	1	0	49.1949	0.238703	0.238497	0.000258406	3	8.92617e-06	6.1629e-08
2	0	0	1	0	49.6549	0.215703	0.215487	0.000236508	3	9.03878e-06	5.09644e-08
2	0	0	1	0	50.1149	0.192702	0.192527	0.00021464	3	9.14171e-06	4.13239e-08
2	0	0	1	0	50.5749	0.169701	0.169478	0.000196853	3	9.23557e-06	3.33623e-08
2	0	0	0	0	51.0351	0.1467	0.146482	0.000174939	3	9.31986e-06	2.56254e-08
2	0	0	0	0	51.4951	0.123699	0.123458	0.000138491	3	9.39146e-06	1.70979e-08
2	0	0	0	0	51.9551	0.100698	0.100455	6.2504e-05	3	9.43959e-06	6.27883e-09
2	0	0	0	0	52.4151	0.077697	0.0775487	-0.000133149	3	9.42969e-06	-1.03255e-08
2	0	0	0	0	52.8751	0.0546961	0.0545165	-0.000539551	3	9.28103e-06	-2.94144e-08
2	0	0	0	0	53.3351	0.0316951	0.0314704	-0.000897359	3	8.93653e-06	-2.82403e-08
2	0	0	0	0	53.7951	0.00869421	0.00846575	-0.000845609	3	8.5224e-06	-7.15871e-09
2	0	0	0	0	54.2551	-0.0143067	-0.0145559	-0.000662393	3	8.17567e-06	9.64174e-09
2	0	0	0	0	54.7151	-0.0373077	-0.037532	-0.000537647	3	7.90084e-06	2.0179e-08
2	0	0	0	0	55.1751	-0.0603086	-0.0605441	-0.000463034	3	7.67119e-06	2.8034e-08
2	0	0	0	0	55.6351	-0.0833095	-0.0835541	-0.00041122	3	7.4701e-06	3.43592e-08
2	0	0	1	0	56.0953	-0.10631	-0.106558	-0.000376382	3	7.28852e-06	4.01064e-08
2	0	0	1	0	56.5553	-0.129311	-0.129528	-0.000350504	3	7.12111e-06	4.53999e-08
2	0	0	1	0	57.0153	-0.152312	-0.152538	-0.000329572	3	6.96424e-06	5.02721e-08
2	0	0	1	0	57.4753	-0.175313	-0.175586	-0.000317944	3	6.81497e-06	5.58264e-08
2	0	0	1	0	57.9353	-0.198314	-0.198594	-0.000308897	3	6.67046e-06	6.13449e-08
2	1	0	0	1	58.3847	-0.179213	-0.179449	-0.000120618	3	6.59965e-06	2.16448e-08
2	1	0	0	1	58.8447	-0.156213	-0.156455	-9.14127e-05	3	6.55259e-06	1.43019e-08
2	1	0	0	1	59.3047	-0.133212	-0.133407	-6.93522e-05	3	6.51733e-06	9.25203e-09
2	1	0	0	1	59.7647	-0.110211	-0.110401	-5.26209e-05	3	6.49066e-06	5.80938e-09
2	1	0	1	1	60.2249	-0.0872097	-0.0874565	-4.00759e-05	3	6.47074e-06	3.5049e-09
2	1	0	1	1	60.5832	-0.0692839	-0.0693336	-1.72258e-05	3	6.45919e-06	1.19433e-09